Time(us)	Angle(deg)	Duty
200	36	65
400	20	65
600	14	65
800	20	65
1000	4	65
1200	10	65
1400	0	65
1600	1	65
1800	0	65
2000	0	65
2200	0	65
2400	0	65
2600	0	65
2800	0	65
3000	0	65
3200	0	65
3400	0	65
3600	0	65
3800	0	65
4000	0	65
4200	0	65
4400	0	65
4600	0	65
4800	0	65
5000	0	65
5200	0	65
5400	0	65
5600	0	65
5800	0	65
6000	0	65
6200	0	65
6400	0	65
6600	0	65
6800	0	65
7000	0	65
7200	0	65
7400	0	65
7600	0	65
7800	0	65
8000	0	65
8200	0	65
8400	0	65
8600	0	65
8800	0	65
9000	0	65
9200	0	65
9400	0	65
9600	0	65
9800	0	65
10000	0	65
10200	0	65
10400	0	65
10600	0	65
10800	0	65
11000	0	65
11200	0	65
11400	0	65
11600	0	65
11800	0	65
12000	0	65
12200	0	65
12400	0	65
12600	0	65
12800	0	65
13000	0	65
13200	0	65
13400	0	65
13600	0	65
13800	0	65
14000	0	65
14200	0	65
14400	0	65
14600	0	65
14800	0	65
15000	0	65
15200	0	65
15400	0	65
15600	0	65
15800	0	65
16000	0	65
16200	0	65
16400	0	65
16600	0	65
16800	0	65
17000	0	65
17200	0	65
17400	0	65
17600	0	65
17800	0	65
18000	0	65
18200	0	65
18400	0	65
18600	0	65
18800	0	65
19000	0	65
19200	0	65
19400	0	65
19600	0	65
19800	0	65
20000	0	65
20200	0	65
20400	0	65
20600	0	65
20800	0	65
21000	0	65
21200	0	65
21400	0	65
21600	0	65
21800	0	65
22000	0	65
22200	0	65
22400	0	65
22600	0	65
22800	0	65
23000	0	65
23200	0	65
23400	0	65
23600	0	65
23800	0	65
24000	0	65
24200	0	65
24400	0	65
24600	0	65
24800	0	65
25000	0	65
25200	0	65
25400	0	65
25600	0	65
25800	0	65
26000	0	65
26200	0	65
26400	0	65
26600	0	65
26800	0	65
27000	0	65
27200	0	65
27400	0	65
27600	0	65
27800	0	65
28000	0	65
28200	0	65
28400	0	65
28600	0	65
28800	0	65
29000	0	65
29200	0	65
29400	0	65
29600	0	65
29800	0	65
30000	0	65
30200	0	65
30400	0	65
30600	0	65
30800	0	65
31000	0	65
31200	0	65
31400	0	65
31600	0	65
31800	0	65
32000	0	65
32200	0	65
32400	0	65
32600	0	65
32800	0	65
33000	0	65
33200	0	65
33400	0	65
33600	0	65
33800	0	65
34000	0	65
34200	0	65
34400	0	65
34600	0	65
34800	0	65
35000	0	65
35200	0	65
35400	0	65
35600	0	65
35800	0	65
36000	0	65
36200	0	65
36400	0	65
36600	0	65
36800	0	65
37000	0	65
37200	0	65
37400	0	65
37600	0	65
37800	0	65
38000	0	65
38200	0	65
38400	0	65
38600	0	65
38800	0	65
39000	0	65
39200	0	65
39400	0	65
39600	0	65
39800	0	65
40000	0	65
40200	0	65
40400	0	65
40600	0	65
40800	0	65
41000	0	65
41200	0	65
41400	0	65
41600	0	65
41800	0	65
42000	0	65
42200	0	65
42400	0	65
42600	0	65
42800	0	65
43000	0	65
43200	0	65
43400	0	65
43600	0	65
43800	0	65
44000	0	65
44200	0	65
44400	0	65
44600	0	65
44800	0	65
45000	0	65
45200	0	65
45400	0	65
45600	0	65
45800	0	65
46000	0	65
46200	0	65
46400	0	65
46600	0	65
46800	0	65
47000	0	65
47200	0	65
47400	0	65
47600	0	65
47800	0	65
48000	0	65
48200	0	65
48400	0	65
48600	0	65
48800	0	65
49000	0	65
49200	0	65
49400	0	65
49600	0	65
49800	0	65
50000	0	65
50200	0	65
50400	0	65
50600	0	65
50800	0	65
51000	0	65
51200	0	65
51400	0	65
51600	0	65
51800	0	65
52000	0	65
52200	0	65
52400	0	65
52600	0	65
52800	0	65
53000	0	65
53200	0	65
53400	0	65
53600	0	65
53800	0	65
54000	0	65
54200	0	65
54400	0	65
54600	0	65
54800	0	65
55000	0	65
55200	0	65
55400	0	65
55600	0	65
55800	0	65
56000	0	65
56200	0	65
56400	0	65
56600	0	65
56800	0	65
57000	0	65
57200	0	65
57400	0	65
57600	0	65
57800	0	65
58000	0	65
58200	0	65
58400	0	65
58600	0	65
58800	0	65
59000	0	65
59200	0	65
59400	0	65
59600	0	65
59800	0	65
60000	0	65
60200	0	65
60400	0	65
60600	0	65
60800	0	65
61000	0	65
61200	0	65
61400	0	65
61600	0	65
61800	0	65
62000	0	65
62200	0	65
62400	0	65
62600	0	65
62800	0	65
63000	0	65
63200	0	65
63400	0	65
63600	0	65
63800	0	65
64000	0	65
64200	0	65
64400	0	65
64600	0	65
64800	0	65
65000	0	65
65200	0	65
65400	0	65
65600	0	65
65800	0	65
66000	0	65
66200	0	65
66400	0	65
66600	0	65
66800	0	65
67000	0	65
67200	0	65
67400	0	65
67600	0	65
67800	0	65
68000	0	65
68200	0	65
68400	0	65
68600	0	65
68800	0	65
69000	0	65
69200	0	65
69400	0	65
69600	0	65
69800	0	65
70000	0	65
70200	0	65
70400	0	65
70600	0	65
70800	0	65
71000	0	65
71200	0	65
71400	0	65
71600	0	65
71800	0	65
72000	0	65
72200	0	65
72400	0	65
72600	0	65
72800	0	65
73000	0	65
73200	0	65
73400	0	65
73600	0	65
73800	0	65
74000	0	65
74200	0	65
74400	0	65
74600	0	65
74800	0	65
75000	0	65
75200	0	65
75400	0	65
75600	0	65
75800	0	65
76000	0	65
76200	0	65
76400	0	65
76600	0	65
76800	0	65
77000	0	65
77200	0	65
77400	0	65
77600	0	65
77800	0	65
78000	0	65
78200	0	65
78400	0	65
78600	0	65
78800	0	65
79000	0	65
79200	0	65
79400	0	65
79600	0	65
79800	0	65
80000	0	65
80200	0	65
80400	0	65
80600	0	65
80800	0	65
81000	0	65
81200	0	65
81400	0	65
81600	0	65
81800	0	65
82000	0	65
82200	0	65
82400	0	65
82600	0	65
82800	0	65
83000	0	65
83200	0	65
83400	0	65
83600	0	65
83800	0	65
84000	0	65
84200	0	65
84400	0	65
84600	0	65
84800	0	65
85000	0	65
85200	0	65
85400	0	65
85600	0	65
85800	0	65
86000	0	65
86200	0	65
86400	0	65
86600	0	65
86800	0	65
87000	0	65
87200	0	65
87400	0	65
87600	0	65
87800	0	65
88000	0	65
88200	0	65
88400	0	65
88600	0	65
88800	0	65
89000	0	65
89200	0	65
89400	0	65
89600	0	65
89800	0	65
90000	0	65
90200	0	65
90400	0	65
90600	0	65
90800	0	65
91000	0	65
91200	0	65
91400	0	65
91600	0	65
91800	0	65
92000	0	65
92200	0	65
92400	0	65
92600	0	65
92800	0	65
93000	0	65
93200	0	65
93400	0	65
93600	0	65
93800	0	65
94000	0	65
94200	0	65
94400	0	65
94600	0	65
94800	0	65
95000	0	65
95200	0	65
95400	0	65
95600	0	65
95800	0	65
96000	0	65
96200	0	65
96400	0	65
96600	0	65
96800	0	65
97000	0	65
97200	0	65
97400	0	65
97600	0	65
97800	0	65
98000	0	65
98200	0	65
98400	0	65
98600	0	65
98800	0	65
99000	0	65
99200	0	65
99400	0	65
99600	0	65
99800	0	65
100000	0	65
100200	0	65
100400	0	65
100600	0	65
100800	0	65
101000	0	65
101200	0	65
101400	0	65
101600	0	65
101800	0	65
102000	0	65
102200	0	65
102400	0	65
102600	0	65
102800	0	65
103000	0	65
103200	0	65
103400	0	65
103600	0	65
103800	0	65
104000	0	65
104200	0	65
104400	0	65
104600	0	65
104800	0	65
105000	0	65
105200	0	65
105400	0	65
105600	0	65
105800	0	65
106000	0	65
106200	0	65
106400	0	65
106600	0	65
106800	0	65
107000	0	65
107200	0	65
107400	0	65
107600	0	65
107800	0	65
108000	0	65
108200	0	65
108400	0	65
108600	0	65
108800	0	65
109000	0	65
109200	0	65
109400	0	65
109600	0	65
109800	0	65
110000	0	65
110200	0	65
110400	0	65
110600	0	65
110800	0	65
111000	0	65
111200	0	65
111400	0	65
111600	0	65
111800	0	65
112000	0	65
112200	0	65
112400	0	65
112600	0	65
112800	0	65
113000	0	65
113200	0	65
113400	0	65
113600	0	65
113800	0	65
114000	0	65
114200	0	65
114400	0	65
114600	0	65
114800	0	65
115000	0	65
115200	0	65
115400	0	65
115600	0	65
115800	0	65
116000	0	65
116200	0	65
116400	0	65
116600	0	65
116800	0	65
117000	0	65
117200	0	65
117400	0	65
117600	0	65
117800	0	65
118000	0	65
118200	0	65
118400	0	65
118600	0	65
118800	0	65
119000	0	65
119200	0	65
119400	0	65
119600	0	65
119800	0	65
120000	0	65
120200	0	65
120400	0	65
120600	0	65
120800	0	65
121000	0	65
121200	0	65
121400	0	65
121600	0	65
121800	0	65
122000	0	65
122200	0	65
122400	0	65
122600	0	65
122800	0	65
123000	0	65
123200	0	65
123400	0	65
123600	0	65
123800	0	65
124000	0	65
124200	0	65
124400	0	65
124600	0	65
124800	0	65
125000	0	65
125200	0	65
125400	0	65
125600	0	65
125800	0	65
126000	0	65
126200	0	65
126400	0	65
126600	0	65
126800	0	65
127000	0	65
127200	0	65
127400	0	65
127600	0	65
127800	0	65
128000	0	65
128200	0	65
128400	0	65
128600	0	65
128800	0	65
129000	0	65
129200	0	65
129400	0	65
129600	0	65
129800	0	65
130000	0	65
130200	0	65
130400	0	65
130600	0	65
130800	0	65
131000	0	65
131200	0	65
131400	0	65
131600	0	65
131800	0	65
132000	0	65
132200	0	65
132400	0	65
132600	0	65
132800	0	65
133000	0	65
133200	0	65
133400	0	65
133600	0	65
133800	0	65
134000	0	65
134200	0	65
134400	0	65
134600	0	65
134800	0	65
135000	0	65
135200	0	65
135400	0	65
135600	0	65
135800	0	65
136000	0	65
136200	0	65
136400	0	65
136600	0	65
136800	0	65
137000	0	65
137200	0	65
137400	0	65
137600	0	65
137800	0	65
138000	0	65
138200	0	65
138400	0	65
138600	0	65
138800	0	65
139000	0	65
139200	0	65
139400	0	65
139600	0	65
139800	0	65
140000	0	65
140200	0	65
140400	0	65
140600	0	65
140800	0	65
141000	0	65
141200	0	65
141400	0	65
141600	0	65
141800	0	65
142000	0	65
142200	0	65
142400	0	65
142600	0	65
142800	0	65
143000	0	65
143200	0	65
143400	0	65
143600	0	65
143800	0	65
144000	0	65
144200	0	65
144400	0	65
144600	0	65
144800	0	65
145000	0	65
145200	0	65
145400	0	65
145600	0	65
145800	0	65
146000	0	65
146200	0	65
146400	0	65
146600	0	65
146800	0	65
147000	0	65
147200	0	65
147400	0	65
147600	0	65
147800	0	65
148000	0	65
148200	0	65
148400	0	65
148600	0	65
148800	0	65
149000	0	65
149200	0	65
149400	0	65
149600	0	65
149800	0	65
150000	0	65
150200	0	65
150400	0	65
150600	0	65
150800	0	65
151000	0	65
151200	0	65
151400	0	65
151600	0	65
151800	0	65
152000	0	65
152200	0	65
152400	0	65
152600	0	65
152800	0	65
153000	0	65
153200	0	65
153400	0	65
153600	0	65
153800	0	65
154000	0	65
154200	0	65
154400	0	65
154600	0	65
154800	0	65
155000	0	65
155200	0	65
155400	0	65
155600	0	65
155800	0	65
156000	0	65
156200	0	65
156400	0	65
156600	0	65
156800	0	65
157000	0	65
157200	0	65
157400	0	65
157600	0	65
157800	0	65
158000	0	65
158200	0	65
158400	0	65
158600	0	65
158800	0	65
159000	0	65
159200	0	65
159400	0	65
159600	0	65
159800	0	65
160000	0	65
160200	0	65
160400	0	65
160600	0	65
160800	0	65
161000	0	65
161200	0	65
161400	0	65
161600	0	65
161800	0	65
162000	0	65
162200	0	65
162400	0	65
162600	0	65
162800	0	65
163000	0	65
163200	0	65
163400	0	65
163600	0	65
163800	0	65
164000	0	65
164200	0	65
164400	0	65
164600	0	65
164800	0	65
165000	0	65
165200	0	65
165400	0	65
165600	0	65
165800	0	65
166000	0	65
166200	0	65
166400	0	65
166600	0	65
166800	0	65
167000	0	65
167200	0	65
167400	0	65
167600	0	65
167800	0	65
168000	0	65
168200	0	65
168400	0	65
168600	0	65
168800	0	65
169000	0	65
169200	0	65
169400	0	65
169600	0	65
169800	0	65
170000	0	65
170200	0	65
170400	0	65
170600	0	65
170800	0	65
171000	0	65
171200	0	65
171400	0	65
171600	0	65
171800	0	65
172000	0	65
172200	0	65
172400	0	65
172600	0	65
172800	0	65
173000	0	65
173200	0	65
173400	0	65
173600	0	65
173800	0	65
174000	0	65
174200	0	65
174400	0	65
174600	0	65
174800	0	65
175000	0	65
175200	0	65
175400	0	65
175600	0	65
175800	0	65
176000	0	65
176200	0	65
176400	0	65
176600	0	65
176800	0	65
177000	0	65
177200	0	65
177400	0	65
177600	0	65
177800	0	65
178000	0	65
178200	0	65
178400	0	65
178600	0	65
178800	0	65
179000	0	65
179200	0	65
179400	0	65
179600	0	65
179800	0	65
180000	0	65
180200	0	65
180400	0	65
180600	0	65
180800	0	65
181000	0	65
181200	0	65
181400	0	65
181600	0	65
181800	0	65
182000	0	65
182200	0	65
182400	0	65
182600	0	65
182800	0	65
183000	0	65
183200	0	65
183400	0	65
183600	0	65
183800	0	65
184000	0	65
184200	0	65
184400	0	65
184600	0	65
184800	0	65
185000	0	65
185200	0	65
185400	0	65
185600	0	65
185800	0	65
186000	0	65
186200	0	65
186400	0	65
186600	0	65
186800	0	65
187000	0	65
187200	0	65
187400	0	65
187600	0	65
187800	0	65
188000	0	65
188200	0	65
188400	0	65
188600	0	65
188800	0	65
189000	0	65
189200	0	65
189400	0	65
189600	0	65
189800	0	65
190000	0	65
190200	0	65
190400	0	65
190600	0	65
190800	0	65
191000	0	65
191200	0	65
191400	0	65
191600	0	65
191800	0	65
192000	0	65
192200	0	65
192400	0	65
192600	0	65
192800	0	65
193000	0	65
193200	0	65
193400	0	65
193600	0	65
193800	0	65
194000	0	65
194200	0	65
194400	0	65
194600	0	65
194800	0	65
195000	0	65
195200	0	65
195400	0	65
195600	0	65
195800	0	65
196000	0	65
196200	0	65
196400	0	65
196600	0	65
196800	0	65
197000	0	65
197200	0	65
197400	0	65
197600	0	65
197800	0	65
198000	0	65
198200	0	65
198400	0	65
198600	0	65
198800	0	65
199000	0	65
199200	0	65
199400	0	65
199600	0	65
199800	0	65
200000	0	65
200200	0	65
200400	0	65
200600	0	65
200800	0	65
201000	0	65
201200	0	65
201400	0	65
201600	0	65
201800	0	65
202000	0	65
202200	0	65
202400	0	65
202600	0	65
202800	0	65
203000	0	65
203200	0	65
203400	0	65
203600	0	65
203800	0	65
204000	0	65
204200	0	65
204400	0	65
204600	0	65
204800	0	65
205000	0	65
205200	0	65
205400	0	65
205600	0	65
205800	0	65
206000	0	65
206200	0	65
206400	0	65
206600	0	65
206800	0	65
207000	0	65
207200	0	65
207400	0	65
207600	0	65
207800	0	65
208000	0	65
208200	0	65
208400	0	65
208600	0	65
208800	0	65
209000	0	65
209200	0	65
209400	0	65
209600	0	65
209800	0	65
210000	0	65
210200	0	65
210400	0	65
210600	0	65
210800	0	65
211000	0	65
211200	0	65
211400	0	65
211600	0	65
211800	0	65
212000	0	65
212200	0	65
212400	0	65
212600	0	65
212800	0	65
213000	0	65
213200	0	65
213400	0	65
213600	0	65
213800	0	65
214000	0	65
214200	0	65
214400	0	65
214600	0	65
214800	0	65
215000	0	65
215200	0	65
215400	0	65
215600	0	65
215800	0	65
216000	0	65
216200	0	65
216400	0	65
216600	0	65
216800	0	65
217000	0	65
217200	0	65
217400	0	65
217600	0	65
217800	0	65
218000	0	65
218200	0	65
218400	0	65
218600	0	65
218800	0	65
219000	0	65
219200	0	65
219400	0	65
219600	0	65
219800	0	65
220000	0	65
220200	0	65
220400	0	65
220600	0	65
220800	0	65
221000	0	65
221200	0	65
221400	0	65
221600	0	65
221800	0	65
222000	0	65
222200	0	65
222400	0	65
222600	0	65
222800	0	65
223000	0	65
223200	0	65
223400	0	65
223600	0	65
223800	0	65
224000	0	65
224200	0	65
224400	0	65
224600	0	65
224800	0	65
225000	0	65
225200	0	65
225400	0	65
225600	0	65
225800	0	65
226000	0	65
226200	0	65
226400	0	65
226600	0	65
226800	0	65
227000	0	65
227200	0	65
227400	0	65
227600	0	65
227800	0	65
228000	0	65
228200	0	65
228400	0	65
228600	0	65
228800	0	65
229000	0	65
229200	0	65
229400	0	65
229600	0	65
229800	0	65
230000	0	65
230200	0	65
230400	0	65
230600	0	65
230800	0	65
231000	0	65
231200	0	65
231400	0	65
231600	0	65
231800	0	65
232000	0	65
232200	0	65
232400	0	65
232600	0	65
232800	0	65
233000	0	65
233200	0	65
233400	0	65
233600	0	65
233800	0	65
234000	0	65
234200	0	65
234400	0	65
234600	0	65
234800	0	65
235000	0	65
235200	0	65
235400	0	65
235600	0	65
235800	0	65
236000	0	65
236200	0	65
236400	0	65
236600	0	65
236800	0	65
237000	0	65
237200	0	65
237400	0	65
237600	0	65
237800	0	65
238000	0	65
238200	0	65
238400	0	65
238600	0	65
238800	0	65
239000	0	65
239200	0	65
239400	0	65
239600	0	65
239800	0	65
240000	0	65
240200	0	65
240400	0	65
240600	0	65
240800	0	65
241000	0	65
241200	0	65
241400	0	65
241600	0	65
241800	0	65
242000	0	65
242200	0	65
242400	0	65
242600	0	65
242800	0	65
243000	0	65
243200	0	65
243400	0	65
243600	0	65
243800	0	65
244000	0	65
244200	0	65
244400	0	65
244600	0	65
244800	0	65
245000	0	65
245200	0	65
245400	0	65
245600	0	65
245800	0	65
246000	0	65
246200	0	65
246400	0	65
246600	0	65
246800	0	65
247000	0	65
247200	0	65
247400	0	65
247600	0	65
247800	0	65
248000	0	65
248200	0	65
248400	0	65
248600	0	65
248800	0	65
249000	0	65
249200	0	65
249400	0	65
249600	0	65
249800	0	65
250000	0	65
250200	0	65
250400	0	65
250600	0	65
250800	0	65
251000	0	65
251200	0	65
251400	0	65
251600	0	65
251800	0	65
252000	0	65
252200	0	65
252400	0	65
252600	0	65
252800	0	65
253000	0	65
253200	0	65
253400	0	65
253600	0	65
253800	0	65
254000	0	65
254200	0	65
254400	0	65
254600	0	65
254800	0	65
255000	0	65
255200	0	65
255400	0	65
255600	0	65
255800	0	65
256000	0	65
256200	0	65
256400	0	65
256600	0	65
256800	0	65
257000	0	65
257200	0	65
257400	0	65
257600	0	65
257800	0	65
258000	0	65
258200	0	65
258400	0	65
258600	0	65
258800	0	65
259000	0	65
259200	0	65
259400	0	65
259600	0	65
259800	0	65
260000	0	65
260200	0	65
260400	0	65
260600	0	65
260800	0	65
261000	0	65
261200	0	65
261400	0	65
261600	0	65
261800	0	65
262000	0	65
262200	0	65
262400	0	65
262600	0	65
262800	0	65
263000	0	65
263200	0	65
263400	0	65
263600	0	65
263800	0	65
264000	0	65
264200	0	65
264400	0	65
264600	0	65
264800	0	65
265000	0	65
265200	0	65
265400	0	65
265600	0	65
265800	0	65
266000	0	65
266200	0	65
266400	0	65
266600	0	65
266800	0	65
267000	0	65
267200	0	65
267400	0	65
267600	0	65
267800	0	65
268000	0	65
268200	0	65
268400	0	65
268600	0	65
268800	0	65
269000	0	65
269200	0	65
269400	0	65
269600	0	65
269800	0	65
270000	0	65
270200	0	65
270400	0	65
270600	0	65
270800	0	65
271000	0	65
271200	0	65
271400	0	65
271600	0	65
271800	0	65
272000	0	65
272200	0	65
272400	0	65
272600	0	65
272800	0	65
273000	0	65
273200	0	65
273400	0	65
273600	0	65
273800	0	65
274000	0	65
274200	0	65
274400	0	65
274600	0	65
274800	0	65
275000	0	65
275200	0	65
275400	0	65
275600	0	65
275800	0	65
276000	0	65
276200	0	65
276400	0	65
276600	0	65
276800	0	65
277000	0	65
277200	0	65
277400	0	65
277600	0	65
277800	0	65
278000	0	65
278200	0	65
278400	0	65
278600	0	65
278800	0	65
279000	0	65
279200	0	65
279400	0	65
279600	0	65
279800	0	65
280000	0	65
280200	0	65
280400	0	65
280600	0	65
280800	0	65
281000	0	65
281200	0	65
281400	0	65
281600	0	65
281800	0	65
282000	0	65
282200	0	65
282400	0	65
282600	0	65
282800	0	65
283000	0	65
283200	0	65
283400	0	65
283600	0	65
283800	0	65
284000	0	65
284200	0	65
284400	0	65
284600	0	65
284800	0	65
285000	0	65
285200	0	65
285400	0	65
285600	0	65
285800	0	65
286000	0	65
286200	0	65
286400	0	65
286600	0	65
286800	0	65
287000	0	65
287200	0	65
287400	0	65
287600	0	65
287800	0	65
288000	0	65
288200	0	65
288400	0	65
288600	0	65
288800	0	65
289000	0	65
289200	0	65
289400	0	65
289600	0	65
289800	0	65
290000	0	65
290200	0	65
290400	0	65
290600	0	65
290800	0	65
291000	0	65
291200	0	65
291400	0	65
291600	0	65
291800	0	65
292000	0	65
292200	0	65
292400	0	65
292600	0	65
292800	0	65
293000	0	65
293200	0	65
293400	0	65
293600	0	65
293800	0	65
294000	0	65
294200	0	65
294400	0	65
294600	0	65
294800	0	65
295000	0	65
295200	0	65
295400	0	65
295600	0	65
295800	0	65
296000	0	65
296200	0	65
296400	0	65
296600	0	65
296800	0	65
297000	0	65
297200	0	65
297400	0	65
297600	0	65
297800	0	65
298000	0	65
298200	0	65
298400	0	65
298600	0	65
298800	0	65
299000	0	65
299200	0	65
299400	0	65
299600	0	65
299800	0	65
300000	0	65
300200	0	65
300400	0	65
300600	0	65
300800	0	65
301000	0	65
301200	0	65
301400	0	65
301600	0	65
301800	0	65
302000	0	65
302200	0	65
302400	0	65
302600	0	65
302800	0	65
303000	0	65
303200	0	65
303400	0	65
303600	0	65
303800	0	65
304000	0	65
304200	0	65
304400	0	65
304600	0	65
304800	0	65
305000	0	65
305200	0	65
305400	0	65
305600	0	65
305800	0	65
306000	0	65
306200	0	65
306400	0	65
306600	0	65
306800	0	65
307000	0	65
307200	0	65
307400	0	65
307600	0	65
307800	0	65
308000	0	65
308200	0	65
308400	0	65
308600	0	65
308800	0	65
309000	0	65
309200	0	65
309400	0	65
309600	0	65
309800	0	65
310000	0	65
310200	0	65
310400	0	65
310600	0	65
310800	0	65
311000	0	65
311200	0	65
311400	0	65
311600	0	65
311800	0	65
312000	0	65
312200	0	65
312400	0	65
312600	0	65
312800	0	65
313000	0	65
313200	0	65
313400	0	65
313600	0	65
313800	0	65
314000	0	65
314200	0	65
314400	0	65
314600	0	65
314800	0	65
315000	0	65
315200	0	65
315400	0	65
315600	0	65
315800	0	65
316000	0	65
316200	0	65
316400	0	65
316600	0	65
316800	0	65
317000	0	65
317200	0	65
317400	0	65
317600	0	65
317800	0	65
318000	0	65
318200	0	65
318400	0	65
318600	0	65
318800	0	65
319000	0	65
319200	0	65
319400	0	65
319600	0	65
319800	0	65
320000	0	65
320200	0	65
320400	0	65
320600	0	65
320800	0	65
321000	0	65
321200	0	65
321400	0	65
321600	0	65
321800	0	65
322000	0	65
322200	0	65
322400	0	65
322600	0	65
322800	0	65
323000	0	65
323200	0	65
323400	0	65
323600	0	65
323800	0	65
324000	0	65
324200	0	65
324400	0	65
324600	0	65
324800	0	65
325000	0	65
325200	0	65
325400	0	65
325600	0	65
325800	0	65
326000	0	65
326200	0	65
326400	0	65
326600	0	65
326800	0	65
327000	0	65
327200	0	65
327400	0	65
327600	0	65
327800	0	65
328000	0	65
328200	0	65
328400	0	65
328600	0	65
328800	0	65
329000	0	65
329200	0	65
329400	0	65
329600	0	65
329800	0	65
330000	0	65
330200	0	65
330400	0	65
330600	0	65
330800	0	65
331000	0	65
331200	0	65
331400	0	65
331600	0	65
331800	0	65
332000	0	65
332200	0	65
332400	0	65
332600	0	65
332800	0	65
333000	0	65
333200	0	65
333400	0	65
333600	0	65
333800	0	65
334000	0	65
334200	0	65
334400	0	65
334600	0	65
334800	0	65
335000	0	65
335200	0	65
335400	0	65
335600	0	65
335800	0	65
336000	0	65
336200	0	65
336400	0	65
336600	0	65
336800	0	65
337000	0	65
337200	0	65
337400	0	65
337600	0	65
337800	0	65
338000	0	65
338200	0	65
338400	0	65
338600	0	65
338800	0	65
339000	0	65
339200	0	65
339400	0	65
339600	0	65
339800	0	65
340000	0	65
340200	0	65
340400	0	65
340600	0	65
340800	0	65
341000	0	65
341200	0	65
341400	0	65
341600	0	65
341800	0	65
342000	0	65
342200	0	65
342400	0	65
342600	0	65
342800	0	65
343000	0	65
343200	0	65
343400	0	65
343600	0	65
343800	0	65
344000	0	65
344200	0	65
344400	0	65
344600	0	65
344800	0	65
345000	0	65
345200	0	65
345400	0	65
345600	0	65
345800	0	65
346000	0	65
346200	0	65
346400	0	65
346600	0	65
346800	0	65
347000	0	65
347200	0	65
347400	0	65
347600	0	65
347800	0	65
348000	0	65
348200	0	65
348400	0	65
348600	0	65
348800	0	65
349000	0	65
349200	0	65
349400	0	65
349600	0	65
349800	0	65
350000	0	65
350200	0	65
350400	0	65
350600	0	65
350800	0	65
351000	0	65
351200	0	65
351400	0	65
351600	0	65
351800	0	65
352000	0	65
352200	0	65
352400	0	65
352600	0	65
352800	0	65
353000	0	65
353200	0	65
353400	0	65
353600	0	65
353800	0	65
354000	0	65
354200	0	65
354400	0	65
354600	0	65
354800	0	65
355000	0	65
355200	0	65
355400	0	65
355600	0	65
355800	0	65
356000	0	65
356200	0	65
356400	0	65
356600	0	65
356800	0	65
357000	0	65
357200	0	65
357400	0	65
357600	0	65
357800	0	65
358000	0	65
358200	0	65
358400	0	65
358600	0	65
358800	0	65
359000	0	65
359200	0	65
359400	0	65
359600	0	65
359800	0	65
360000	0	65
360200	0	65
360400	0	65
360600	0	65
360800	0	65
361000	0	65
361200	0	65
361400	0	65
361600	0	65
361800	0	65
362000	0	65
362200	0	65
362400	0	65
362600	0	65
362800	0	65
363000	0	65
363200	0	65
363400	0	65
363600	0	65
363800	0	65
364000	0	65
364200	0	65
364400	0	65
364600	0	65
364800	0	65
365000	0	65
365200	0	65
365400	0	65
365600	0	65
365800	0	65
366000	0	65
366200	0	65
366400	0	65
366600	0	65
366800	0	65
367000	0	65
367200	0	65
367400	0	65
367600	0	65
367800	0	65
368000	0	65
368200	0	65
368400	0	65
368600	0	65
368800	0	65
369000	0	65
369200	0	65
369400	0	65
369600	0	65
369800	0	65
370000	0	65
370200	0	65
370400	0	65
370600	0	65
370800	0	65
371000	0	65
371200	0	65
371400	0	65
371600	0	65
371800	0	65
372000	0	65
372200	0	65
372400	0	65
372600	0	65
372800	0	65
373000	0	65
373200	0	65
373400	0	65
373600	0	65
373800	0	65
374000	0	65
374200	0	65
374400	0	65
374600	0	65
374800	0	65
375000	0	65
375200	0	65
375400	0	65
375600	0	65
375800	0	65
376000	0	65
376200	0	65
376400	0	65
376600	0	65
376800	0	65
377000	0	65
377200	0	65
377400	0	65
377600	0	65
377800	0	65
378000	0	65
378200	0	65
378400	0	65
378600	0	65
378800	0	65
379000	0	65
379200	0	65
379400	0	65
379600	0	65
379800	0	65
380000	0	65
380200	0	65
380400	0	65
380600	0	65
380800	0	65
381000	0	65
381200	0	65
381400	0	65
381600	0	65
381800	0	65
382000	0	65
382200	0	65
382400	0	65
382600	0	65
382800	0	65
383000	0	65
383200	0	65
383400	0	65
383600	0	65
383800	0	65
384000	0	65
384200	0	65
384400	0	65
384600	0	65
384800	0	65
385000	0	65
385200	0	65
385400	0	65
385600	0	65
385800	0	65
386000	0	65
386200	0	65
386400	0	65
386600	0	65
386800	0	65
387000	0	65
387200	0	65
387400	0	65
387600	0	65
387800	0	65
388000	0	65
388200	0	65
388400	0	65
388600	0	65
388800	0	65
389000	0	65
389200	0	65
389400	0	65
389600	0	65
389800	0	65
390000	0	65
390200	0	65
390400	0	65
390600	0	65
390800	0	65
391000	0	65
391200	0	65
391400	0	65
391600	0	65
391800	0	65
392000	0	65
392200	0	65
392400	0	65
392600	0	65
392800	0	65
393000	0	65
393200	0	65
393400	0	65
393600	0	65
393800	0	65
394000	0	65
394200	0	65
394400	0	65
394600	0	65
394800	0	65
395000	0	65
395200	0	65
395400	0	65
395600	0	65
395800	0	65
396000	0	65
396200	0	65
396400	0	65
396600	0	65
396800	0	65
397000	0	65
397200	0	65
397400	0	65
397600	0	65
397800	0	65
398000	0	65
398200	0	65
398400	0	65
398600	0	65
398800	0	65
399000	0	65
399200	0	65
399400	0	65
399600	0	65
399800	0	65
400000	0	65
400200	0	65
400400	0	65
400600	0	65
400800	0	65
401000	0	65
401200	0	65
401400	0	65
401600	0	65
401800	0	65
402000	0	65
402200	0	65
402400	0	65
402600	0	65
402800	0	65
403000	0	65
403200	0	65
403400	0	65
403600	0	65
403800	0	65
404000	0	65
404200	0	65
404400	0	65
404600	0	65
404800	0	65
405000	0	65
405200	0	65
405400	0	65
405600	0	65
405800	0	65
406000	0	65
406200	0	65
406400	0	65
406600	0	65
406800	0	65
407000	0	65
407200	0	65
407400	0	65
407600	0	65
407800	0	65
408000	0	65
408200	0	65
408400	0	65
408600	0	65
408800	0	65
409000	0	65
409200	0	65
409400	0	65
409600	0	65
409800	0	65
410000	0	65
410200	0	65
410400	0	65
410600	0	65
410800	0	65
411000	0	65
411200	0	65
411400	0	65
411600	0	65
411800	0	65
412000	0	65
412200	0	65
412400	0	65
412600	0	65
412800	0	65
413000	0	65
413200	0	65
413400	0	65
413600	0	65
413800	0	65
414000	0	65
414200	0	65
414400	0	65
414600	0	65
414800	0	65
415000	0	65
415200	0	65
415400	0	65
415600	0	65
415800	0	65
416000	0	65
416200	0	65
416400	0	65
416600	0	65
416800	0	65
417000	0	65
417200	0	65
417400	0	65
417600	0	65
417800	0	65
418000	0	65
418200	0	65
418400	0	65
418600	0	65
418800	0	65
419000	0	65
419200	0	65
419400	0	65
419600	0	65
419800	0	65
420000	0	65
420200	0	65
420400	0	65
420600	0	65
420800	0	65
421000	0	65
421200	0	65
421400	0	65
421600	0	65
421800	0	65
422000	0	65
422200	0	65
422400	0	65
422600	0	65
422800	0	65
423000	0	65
423200	0	65
423400	0	65
423600	0	65
423800	0	65
424000	0	65
424200	0	65
424400	0	65
424600	0	65
424800	0	65
425000	0	65
425200	0	65
425400	0	65
425600	0	65
425800	0	65
426000	0	65
426200	0	65
426400	0	65
426600	0	65
426800	0	65
427000	0	65
427200	0	65
427400	0	65
427600	0	65
427800	0	65
428000	0	65
428200	0	65
428400	0	65
428600	0	65
428800	0	65
429000	0	65
429200	0	65
429400	0	65
429600	0	65
429800	0	65
430000	0	65
430200	0	65
430400	0	65
430600	0	65
430800	0	65
431000	0	65
431200	0	65
431400	0	65
431600	0	65
431800	0	65
432000	0	65
432200	0	65
432400	0	65
432600	0	65
432800	0	65
433000	0	65
433200	0	65
433400	0	65
433600	0	65
433800	0	65
434000	0	65
434200	0	65
434400	0	65
434600	0	65
434800	0	65
435000	0	65
435200	0	65
435400	0	65
435600	0	65
435800	0	65
436000	0	65
436200	0	65
436400	0	65
436600	0	65
436800	0	65
437000	0	65
437200	0	65
437400	0	65
437600	0	65
437800	0	65
438000	0	65
438200	0	65
438400	0	65
438600	0	65
438800	0	65
439000	0	65
439200	0	65
439400	0	65
439600	0	65
439800	0	65
440000	0	65
440200	0	65
440400	0	65
440600	0	65
440800	0	65
441000	0	65
441200	0	65
441400	0	65
441600	0	65
441800	0	65
442000	0	65
442200	0	65
442400	0	65
442600	0	65
442800	0	65
443000	0	65
443200	0	65
443400	0	65
443600	0	65
443800	0	65
444000	0	65
444200	0	65
444400	0	65
444600	0	65
444800	0	65
445000	0	65
445200	0	65
445400	0	65
445600	0	65
445800	0	65
446000	0	65
446200	0	65
446400	0	65
446600	0	65
446800	0	65
447000	0	65
447200	0	65
447400	0	65
447600	0	65
447800	0	65
448000	0	65
448200	0	65
448400	0	65
448600	0	65
448800	0	65
449000	0	65
449200	0	65
449400	0	65
449600	0	65
449800	0	65
450000	0	65
450200	0	65
450400	0	65
450600	0	65
450800	0	65
451000	0	65
451200	0	65
451400	0	65
451600	0	65
451800	0	65
452000	0	65
452200	0	65
452400	0	65
452600	0	65
452800	0	65
453000	0	65
453200	0	65
453400	0	65
453600	0	65
453800	0	65
454000	0	65
454200	0	65
454400	0	65
454600	0	65
454800	0	65
455000	0	65
455200	0	65
455400	0	65
455600	0	65
455800	0	65
456000	0	65
456200	0	65
456400	0	65
456600	0	65
456800	0	65
457000	0	65
457200	0	65
457400	0	65
457600	0	65
457800	0	65
458000	0	65
458200	0	65
458400	0	65
458600	0	65
458800	0	65
459000	0	65
459200	0	65
459400	0	65
459600	0	65
459800	0	65
460000	0	65
460200	0	65
460400	0	65
460600	0	65
460800	0	65
461000	0	65
461200	0	65
461400	0	65
461600	0	65
461800	0	65
462000	0	65
462200	0	65
462400	0	65
462600	0	65
462800	0	65
463000	0	65
463200	0	65
463400	0	65
463600	0	65
463800	0	65
464000	0	65
464200	0	65
464400	0	65
464600	0	65
464800	0	65
465000	0	65
465200	0	65
465400	0	65
465600	0	65
465800	0	65
466000	0	65
466200	0	65
466400	0	65
466600	0	65
466800	0	65
467000	0	65
467200	0	65
467400	0	65
467600	0	65
467800	0	65
468000	0	65
468200	0	65
468400	0	65
468600	0	65
468800	0	65
469000	0	65
469200	0	65
469400	0	65
469600	0	65
469800	0	65
470000	0	65
470200	0	65
470400	0	65
470600	0	65
470800	0	65
471000	0	65
471200	0	65
471400	0	65
471600	0	65
471800	0	65
472000	0	65
472200	0	65
472400	0	65
472600	0	65
472800	0	65
473000	0	65
473200	0	65
473400	0	65
473600	0	65
473800	0	65
474000	0	65
474200	0	65
474400	0	65
474600	0	65
474800	0	65
475000	0	65
475200	0	65
475400	0	65
475600	0	65
475800	0	65
476000	0	65
476200	0	65
476400	0	65
476600	0	65
476800	0	65
477000	0	65
477200	0	65
477400	0	65
477600	0	65
477800	0	65
478000	0	65
478200	0	65
478400	0	65
478600	0	65
478800	0	65
479000	0	65
479200	0	65
479400	0	65
479600	0	65
479800	0	65
480000	0	65
480200	0	65
480400	0	65
480600	0	65
480800	0	65
481000	0	65
481200	0	65
481400	0	65
481600	0	65
481800	0	65
482000	0	65
482200	0	65
482400	0	65
482600	0	65
482800	0	65
483000	0	65
483200	0	65
483400	0	65
483600	0	65
483800	0	65
484000	0	65
484200	0	65
484400	0	65
484600	0	65
484800	0	65
485000	0	65
485200	0	65
485400	0	65
485600	0	65
485800	0	65
486000	0	65
486200	0	65
486400	0	65
486600	0	65
486800	0	65
487000	0	65
487200	0	65
487400	0	65
487600	0	65
487800	0	65
488000	0	65
488200	0	65
488400	0	65
488600	0	65
488800	0	65
489000	0	65
489200	0	65
489400	0	65
489600	0	65
489800	0	65
490000	0	65
490200	0	65
490400	0	65
490600	0	65
490800	0	65
491000	0	65
491200	0	65
491400	0	65
491600	0	65
491800	0	65
492000	0	65
492200	0	65
492400	0	65
492600	0	65
492800	0	65
493000	0	65
493200	0	65
493400	0	65
493600	0	65
493800	0	65
494000	0	65
494200	0	65
494400	0	65
494600	0	65
494800	0	65
495000	0	65
495200	0	65
495400	0	65
495600	0	65
495800	0	65
496000	0	65
496200	0	65
496400	0	65
496600	0	65
496800	0	65
497000	0	65
497200	0	65
497400	0	65
497600	0	65
497800	0	65
498000	0	65
498200	0	65
498400	0	65
498600	0	65
498800	0	65
499000	0	65
499200	0	65
499400	0	65
499600	0	65
499800	0	65
500000	0	65
500200	0	65
500400	0	65
500600	0	65
500800	0	65
501000	0	65
501200	0	65
501400	0	65
501600	0	65
501800	0	65
502000	0	65
502200	0	65
502400	0	65
502600	0	65
502800	0	65
503000	0	65
503200	0	65
503400	0	65
503600	0	65
503800	0	65
504000	0	65
504200	0	65
504400	0	65
504600	0	65
504800	0	65
505000	0	65
505200	0	65
505400	0	65
505600	0	65
505800	0	65
506000	0	65
506200	0	65
506400	0	65
506600	0	65
506800	0	65
507000	0	65
507200	0	65
507400	0	65
507600	0	65
507800	0	65
508000	0	65
508200	0	65
508400	0	65
508600	0	65
508800	0	65
509000	0	65
509200	0	65
509400	0	65
509600	0	65
509800	0	65
510000	0	65
510200	0	65
510400	0	65
510600	0	65
510800	0	65
511000	0	65
511200	0	65
511400	0	65
511600	0	65
511800	0	65
512000	0	65
512200	0	75
512400	0	75
512600	0	75
512800	0	75
513000	0	75
513200	0	75
513400	0	75
513600	0	75
513800	0	75
514000	0	75
514200	0	75
514400	0	75
514600	0	75
514800	0	75
515000	0	75
515200	0	75
515400	0	75
515600	0	75
515800	0	75
516000	0	75
516200	0	75
516400	0	75
516600	0	75
516800	0	75
517000	0	75
517200	0	75
517400	0	75
517600	0	75
517800	0	75
518000	0	75
518200	0	75
518400	0	75
518600	0	75
518800	0	75
519000	0	75
519200	0	75
519400	0	75
519600	0	75
519800	0	75
520000	0	75
520200	0	75
520400	0	75
520600	0	75
520800	0	75
521000	0	75
521200	0	75
521400	0	75
521600	0	75
521800	0	75
522000	0	75
522200	0	75
522400	0	75
522600	0	75
522800	0	75
523000	0	75
523200	0	75
523400	0	75
523600	0	75
523800	0	75
524000	0	75
524200	0	75
524400	0	75
524600	0	75
524800	0	75
525000	0	75
525200	0	75
525400	0	75
525600	0	75
525800	0	75
526000	0	75
526200	0	75
526400	0	75
526600	0	75
526800	0	75
527000	0	75
527200	0	75
527400	0	75
527600	0	75
527800	0	75
528000	0	75
528200	0	75
528400	0	75
528600	0	75
528800	0	75
529000	0	75
529200	0	75
529400	0	75
529600	0	75
529800	0	75
530000	0	75
530200	0	75
530400	0	75
530600	0	75
530800	0	75
531000	0	75
531200	0	75
531400	0	75
531600	0	75
531800	0	75
532000	0	75
532200	0	75
532400	0	75
532600	0	75
532800	0	75
533000	0	75
533200	0	75
533400	0	75
533600	0	75
533800	0	75
534000	0	75
534200	0	75
534400	0	75
534600	0	75
534800	0	75
535000	0	75
535200	0	75
535400	0	75
535600	0	75
535800	0	75
536000	0	75
536200	0	75
536400	0	75
536600	0	75
536800	0	75
537000	0	75
537200	0	75
537400	0	75
537600	0	75
537800	0	75
538000	0	75
538200	0	75
538400	0	75
538600	0	75
538800	0	75
539000	0	75
539200	0	75
539400	0	75
539600	0	75
539800	0	75
540000	0	75
540200	0	75
540400	0	75
540600	0	75
540800	0	75
541000	0	75
541200	0	75
541400	0	75
541600	0	75
541800	0	75
542000	0	75
542200	0	75
542400	0	75
542600	0	75
542800	0	75
543000	0	75
543200	0	75
543400	0	75
543600	0	75
543800	0	75
544000	0	75
544200	0	75
544400	0	75
544600	0	75
544800	0	75
545000	0	75
545200	0	75
545400	0	75
545600	0	75
545800	0	75
546000	0	75
546200	0	75
546400	0	75
546600	0	75
546800	0	75
547000	0	75
547200	0	75
547400	0	75
547600	0	75
547800	0	75
548000	0	75
548200	0	75
548400	0	75
548600	0	75
548800	0	75
549000	0	75
549200	0	75
549400	0	75
549600	0	75
549800	0	75
550000	0	75
550200	0	75
550400	0	75
550600	0	75
550800	0	75
551000	0	75
551200	0	75
551400	0	75
551600	0	75
551800	0	75
552000	0	75
552200	0	75
552400	0	75
552600	0	75
552800	0	75
553000	0	75
553200	0	75
553400	0	75
553600	0	75
553800	0	75
554000	0	75
554200	0	75
554400	0	75
554600	0	75
554800	0	75
555000	0	75
555200	0	75
555400	0	75
555600	0	75
555800	0	75
556000	0	75
556200	0	75
556400	0	75
556600	0	75
556800	0	75
557000	0	75
557200	0	75
557400	0	75
557600	0	75
557800	0	75
558000	0	75
558200	0	75
558400	0	75
558600	0	75
558800	0	75
559000	0	75
559200	0	75
559400	0	75
559600	0	75
559800	0	75
560000	0	75
560200	0	75
560400	0	75
560600	0	75
560800	0	75
561000	0	75
561200	0	75
561400	0	75
561600	0	75
561800	0	75
562000	0	75
562200	0	75
562400	0	75
562600	0	75
562800	0	75
563000	0	75
563200	0	75
563400	0	75
563600	0	75
563800	0	75
564000	0	75
564200	0	75
564400	0	75
564600	0	75
564800	0	75
565000	0	75
565200	0	75
565400	0	75
565600	0	75
565800	0	75
566000	0	75
566200	0	75
566400	0	75
566600	0	75
566800	0	75
567000	0	75
567200	0	75
567400	0	75
567600	0	75
567800	0	75
568000	0	75
568200	0	75
568400	0	75
568600	0	75
568800	0	75
569000	0	75
569200	0	75
569400	0	75
569600	0	75
569800	0	75
570000	0	75
570200	0	75
570400	0	75
570600	0	75
570800	0	75
571000	0	75
571200	0	75
571400	0	75
571600	0	75
571800	0	75
572000	0	75
572200	0	75
572400	0	75
572600	0	75
572800	0	75
573000	0	75
573200	0	75
573400	0	75
573600	0	75
573800	0	75
574000	0	75
574200	0	75
574400	0	75
574600	0	75
574800	0	75
575000	0	75
575200	0	75
575400	0	75
575600	0	75
575800	0	75
576000	0	75
576200	0	75
576400	0	75
576600	0	75
576800	0	75
577000	0	75
577200	0	75
577400	0	75
577600	0	75
577800	0	75
578000	0	75
578200	0	75
578400	0	75
578600	0	75
578800	0	75
579000	0	75
579200	0	75
579400	0	75
579600	0	75
579800	0	75
580000	0	75
580200	0	75
580400	0	75
580600	0	75
580800	0	75
581000	0	75
581200	0	75
581400	0	75
581600	0	75
581800	0	75
582000	0	75
582200	0	75
582400	0	75
582600	0	75
582800	0	75
583000	0	75
583200	0	75
583400	0	75
583600	0	75
583800	0	75
584000	0	75
584200	0	75
584400	0	75
584600	0	75
584800	0	75
585000	0	75
585200	0	75
585400	0	75
585600	0	75
585800	0	75
586000	0	75
586200	0	75
586400	0	75
586600	0	75
586800	0	75
587000	0	75
587200	0	75
587400	0	75
587600	0	75
587800	0	75
588000	0	75
588200	0	75
588400	0	75
588600	0	75
588800	0	75
589000	0	75
589200	0	75
589400	0	75
589600	0	75
589800	0	75
590000	0	75
590200	0	75
590400	0	75
590600	0	75
590800	0	75
591000	0	75
591200	0	75
591400	0	75
591600	0	75
591800	0	75
592000	0	75
592200	0	75
592400	0	75
592600	0	75
592800	0	75
593000	0	75
593200	0	75
593400	0	75
593600	0	75
593800	0	75
594000	0	75
594200	0	75
594400	0	75
594600	0	75
594800	0	75
595000	0	75
595200	0	75
595400	0	75
595600	0	75
595800	0	75
596000	0	75
596200	0	75
596400	0	75
596600	0	75
596800	0	75
597000	0	75
597200	0	75
597400	0	75
597600	0	75
597800	0	75
598000	0	75
598200	0	75
598400	0	75
598600	0	75
598800	0	75
599000	0	75
599200	0	75
599400	0	75
599600	0	75
599800	0	75
600000	0	75
600200	0	75
600400	0	75
600600	0	75
600800	0	75
601000	0	75
601200	0	75
601400	0	75
601600	0	75
601800	0	75
602000	0	75
602200	0	75
602400	0	75
602600	0	75
602800	0	75
603000	0	75
603200	0	75
603400	0	75
603600	0	75
603800	0	75
604000	0	75
604200	0	75
604400	0	75
604600	0	75
604800	0	75
605000	0	75
605200	0	75
605400	0	75
605600	0	75
605800	0	75
606000	0	75
606200	0	75
606400	0	75
606600	0	75
606800	0	75
607000	0	75
607200	0	75
607400	0	75
607600	0	75
607800	0	75
608000	0	75
608200	0	75
608400	0	75
608600	0	75
608800	0	75
609000	0	75
609200	0	75
609400	0	75
609600	0	75
609800	0	75
610000	0	75
610200	0	75
610400	0	75
610600	0	75
610800	0	75
611000	0	75
611200	0	75
611400	0	75
611600	0	75
611800	0	75
612000	0	75
612200	0	75
612400	0	75
612600	0	75
612800	0	75
613000	0	75
613200	0	75
613400	0	75
613600	0	75
613800	0	75
614000	0	75
614200	0	75
614400	0	75
614600	0	75
614800	0	75
615000	0	75
615200	0	75
615400	0	75
615600	0	75
615800	0	75
616000	0	75
616200	0	75
616400	0	75
616600	0	75
616800	0	75
617000	0	75
617200	0	75
617400	0	75
617600	0	75
617800	0	75
618000	0	75
618200	0	75
618400	0	75
618600	0	75
618800	0	75
619000	0	75
619200	0	75
619400	0	75
619600	0	75
619800	0	75
620000	0	75
620200	0	75
620400	0	75
620600	0	75
620800	0	75
621000	0	75
621200	0	75
621400	0	75
621600	0	75
621800	0	75
622000	0	75
622200	0	75
622400	0	75
622600	0	75
622800	0	75
623000	0	75
623200	0	75
623400	0	75
623600	0	75
623800	0	75
624000	0	75
624200	0	75
624400	0	75
624600	0	75
624800	0	75
625000	0	75
625200	0	75
625400	0	75
625600	0	75
625800	0	75
626000	0	75
626200	0	75
626400	0	75
626600	0	75
626800	0	75
627000	0	75
627200	0	75
627400	0	75
627600	0	75
627800	0	75
628000	0	75
628200	0	75
628400	0	75
628600	0	75
628800	0	75
629000	0	75
629200	0	75
629400	0	75
629600	0	75
629800	0	75
630000	0	75
630200	0	75
630400	0	75
630600	0	75
630800	0	75
631000	0	75
631200	0	75
631400	0	75
631600	0	75
631800	0	75
632000	0	75
632200	0	75
632400	0	75
632600	0	75
632800	0	75
633000	0	75
633200	0	75
633400	0	75
633600	0	75
633800	0	75
634000	0	75
634200	0	75
634400	0	75
634600	0	75
634800	0	75
635000	0	75
635200	0	75
635400	0	75
635600	0	75
635800	0	75
636000	0	75
636200	0	75
636400	0	75
636600	0	75
636800	0	75
637000	0	75
637200	0	75
637400	0	75
637600	0	75
637800	0	75
638000	0	75
638200	0	75
638400	0	75
638600	0	75
638800	0	75
639000	0	75
639200	0	75
639400	0	75
639600	0	75
639800	0	75
640000	0	75
640200	0	75
640400	0	75
640600	0	75
640800	0	75
641000	0	75
641200	0	75
641400	0	75
641600	0	75
641800	0	75
642000	0	75
642200	0	75
642400	0	75
642600	0	75
642800	0	75
643000	0	75
643200	0	75
643400	0	75
643600	0	75
643800	0	75
644000	0	75
644200	0	75
644400	0	75
644600	0	75
644800	0	75
645000	0	75
645200	0	75
645400	0	75
645600	0	75
645800	0	75
646000	0	75
646200	0	75
646400	0	75
646600	0	75
646800	0	75
647000	0	75
647200	0	75
647400	0	75
647600	0	75
647800	0	75
648000	0	75
648200	0	75
648400	0	75
648600	0	75
648800	0	75
649000	0	75
649200	0	75
649400	0	75
649600	0	75
649800	0	75
650000	0	75
650200	0	75
650400	0	75
650600	0	75
650800	0	75
651000	0	75
651200	0	75
651400	0	75
651600	0	75
651800	0	75
652000	0	75
652200	0	75
652400	0	75
652600	0	75
652800	0	75
653000	0	75
653200	0	75
653400	0	75
653600	0	75
653800	0	75
654000	0	75
654200	0	75
654400	0	75
654600	0	75
654800	0	75
655000	0	75
655200	0	75
655400	0	75
655600	0	75
655800	0	75
656000	0	75
656200	0	75
656400	0	75
656600	0	75
656800	0	75
657000	0	75
657200	0	75
657400	0	75
657600	0	75
657800	0	75
658000	0	75
658200	0	75
658400	0	75
658600	0	75
658800	0	75
659000	0	75
659200	0	75
659400	0	75
659600	0	75
659800	0	75
660000	0	75
660200	0	75
660400	0	75
660600	0	75
660800	0	75
661000	0	75
661200	0	75
661400	0	75
661600	0	75
661800	0	75
662000	0	75
662200	0	75
662400	0	75
662600	0	75
662800	0	75
663000	0	75
663200	0	75
663400	0	75
663600	0	75
663800	0	75
664000	0	75
664200	0	75
664400	0	75
664600	0	75
664800	0	75
665000	0	75
665200	0	75
665400	0	75
665600	0	75
665800	0	75
666000	0	75
666200	0	75
666400	0	75
666600	0	75
666800	0	75
667000	0	75
667200	0	75
667400	0	75
667600	0	75
667800	0	75
668000	0	75
668200	0	75
668400	0	75
668600	0	75
668800	0	75
669000	0	75
669200	0	75
669400	0	75
669600	0	75
669800	0	75
670000	0	75
670200	0	75
670400	0	75
670600	0	75
670800	0	75
671000	0	75
671200	0	75
671400	0	75
671600	0	75
671800	0	75
672000	0	75
672200	0	75
672400	0	75
672600	0	75
672800	0	75
673000	0	75
673200	0	75
673400	0	75
673600	0	75
673800	0	75
674000	0	75
674200	0	75
674400	0	75
674600	0	75
674800	0	75
675000	0	75
675200	0	75
675400	0	75
675600	0	75
675800	0	75
676000	0	75
676200	0	75
676400	0	75
676600	0	75
676800	0	75
677000	0	75
677200	0	75
677400	0	75
677600	0	75
677800	0	75
678000	0	75
678200	0	75
678400	0	75
678600	0	75
678800	0	75
679000	0	75
679200	0	75
679400	0	75
679600	0	75
679800	0	75
680000	0	75
680200	0	75
680400	0	75
680600	0	75
680800	0	75
681000	0	75
681200	0	75
681400	0	75
681600	0	75
681800	0	75
682000	0	75
682200	0	75
682400	0	75
682600	0	75
682800	0	75
683000	0	75
683200	0	75
683400	0	75
683600	0	75
683800	0	75
684000	0	75
684200	0	75
684400	0	75
684600	0	75
684800	0	75
685000	0	75
685200	0	75
685400	0	75
685600	0	75
685800	0	75
686000	0	75
686200	0	75
686400	0	75
686600	0	75
686800	0	75
687000	0	75
687200	0	75
687400	0	75
687600	0	75
687800	0	75
688000	0	75
688200	0	75
688400	0	75
688600	0	75
688800	0	75
689000	0	75
689200	0	75
689400	0	75
689600	0	75
689800	0	75
690000	0	75
690200	0	75
690400	0	75
690600	0	75
690800	0	75
691000	0	75
691200	0	75
691400	0	75
691600	0	75
691800	0	75
692000	0	75
692200	0	75
692400	0	75
692600	0	75
692800	0	75
693000	0	75
693200	0	75
693400	0	75
693600	0	75
693800	0	75
694000	0	75
694200	0	75
694400	0	75
694600	0	75
694800	0	75
695000	0	75
695200	0	75
695400	0	75
695600	0	75
695800	0	75
696000	0	75
696200	0	75
696400	0	75
696600	0	75
696800	0	75
697000	0	75
697200	0	75
697400	0	75
697600	0	75
697800	0	75
698000	0	75
698200	0	75
698400	0	75
698600	0	75
698800	0	75
699000	0	75
699200	0	75
699400	0	75
699600	0	75
699800	0	75
700000	0	75
700200	0	75
700400	0	75
700600	0	75
700800	0	75
701000	0	75
701200	0	75
701400	0	75
701600	0	75
701800	0	75
702000	0	75
702200	0	75
702400	0	75
702600	0	75
702800	0	75
703000	0	75
703200	0	75
703400	0	75
703600	0	75
703800	0	75
704000	0	75
704200	0	75
704400	0	75
704600	0	75
704800	0	75
705000	0	75
705200	0	75
705400	0	75
705600	0	75
705800	0	75
706000	0	75
706200	0	75
706400	0	75
706600	0	75
706800	0	75
707000	0	75
707200	0	75
707400	0	75
707600	0	75
707800	0	75
708000	0	75
708200	0	75
708400	0	75
708600	0	75
708800	0	75
709000	0	75
709200	0	75
709400	0	75
709600	0	75
709800	0	75
710000	0	75
710200	0	75
710400	0	75
710600	0	75
710800	0	75
711000	0	75
711200	0	75
711400	0	75
711600	0	75
711800	0	75
712000	0	75
712200	0	75
712400	0	75
712600	0	75
712800	0	75
713000	0	75
713200	0	75
713400	0	75
713600	0	75
713800	0	75
714000	0	75
714200	0	75
714400	0	75
714600	0	75
714800	0	75
715000	0	75
715200	0	75
715400	0	75
715600	0	75
715800	0	75
716000	0	75
716200	0	75
716400	0	75
716600	0	75
716800	0	75
717000	0	75
717200	0	75
717400	0	75
717600	0	75
717800	0	75
718000	0	75
718200	0	75
718400	0	75
718600	0	75
718800	0	75
719000	0	75
719200	0	75
719400	0	75
719600	0	75
719800	0	75
720000	0	75
720200	0	75
720400	0	75
720600	0	75
720800	0	75
721000	0	75
721200	0	75
721400	0	75
721600	0	75
721800	0	75
722000	0	75
722200	0	75
722400	0	75
722600	0	75
722800	0	75
723000	0	75
723200	0	75
723400	0	75
723600	0	75
723800	0	75
724000	0	75
724200	0	75
724400	0	75
724600	0	75
724800	0	75
725000	0	75
725200	0	75
725400	0	75
725600	0	75
725800	0	75
726000	0	75
726200	0	75
726400	0	75
726600	0	75
726800	0	75
727000	0	75
727200	0	75
727400	0	75
727600	0	75
727800	0	75
728000	0	75
728200	0	75
728400	0	75
728600	0	75
728800	0	75
729000	0	75
729200	0	75
729400	0	75
729600	0	75
729800	0	75
730000	0	75
730200	0	75
730400	0	75
730600	0	75
730800	0	75
731000	0	75
731200	0	75
731400	0	75
731600	0	75
731800	0	75
732000	0	75
732200	0	75
732400	0	75
732600	0	75
732800	0	75
733000	0	75
733200	0	75
733400	0	75
733600	0	75
733800	0	75
734000	0	75
734200	0	75
734400	0	75
734600	0	75
734800	0	75
735000	0	75
735200	0	75
735400	0	75
735600	0	75
735800	0	75
736000	0	75
736200	0	75
736400	0	75
736600	0	75
736800	0	75
737000	0	75
737200	0	75
737400	0	75
737600	0	75
737800	0	75
738000	0	75
738200	0	75
738400	0	75
738600	0	75
738800	0	75
739000	0	75
739200	0	75
739400	0	75
739600	0	75
739800	0	75
740000	0	75
740200	0	75
740400	0	75
740600	0	75
740800	0	75
741000	0	75
741200	0	75
741400	0	75
741600	0	75
741800	0	75
742000	0	75
742200	0	75
742400	0	75
742600	0	75
742800	0	75
743000	0	75
743200	0	75
743400	0	75
743600	0	75
743800	0	75
744000	0	75
744200	0	75
744400	0	75
744600	0	75
744800	0	75
745000	0	75
745200	0	75
745400	0	75
745600	0	75
745800	0	75
746000	0	75
746200	0	75
746400	0	75
746600	0	75
746800	0	75
747000	0	75
747200	0	75
747400	0	75
747600	0	75
747800	0	75
748000	0	75
748200	0	75
748400	0	75
748600	0	75
748800	0	75
749000	0	75
749200	0	75
749400	0	75
749600	0	75
749800	0	75
750000	0	75
750200	0	75
750400	0	75
750600	0	75
750800	0	75
751000	0	75
751200	0	75
751400	0	75
751600	0	75
751800	0	75
752000	0	75
752200	0	75
752400	0	75
752600	0	75
752800	0	75
753000	0	75
753200	0	75
753400	0	75
753600	0	75
753800	0	75
754000	0	75
754200	0	75
754400	0	75
754600	0	75
754800	0	75
755000	0	75
755200	0	75
755400	0	75
755600	0	75
755800	0	75
756000	0	75
756200	0	75
756400	0	75
756600	0	75
756800	0	75
757000	0	75
757200	0	75
757400	0	75
757600	0	75
757800	0	75
758000	0	75
758200	0	75
758400	0	75
758600	0	75
758800	0	75
759000	0	75
759200	0	75
759400	0	75
759600	0	75
759800	0	75
760000	0	75
760200	0	75
760400	0	75
760600	0	75
760800	0	75
761000	0	75
761200	0	75
761400	0	75
761600	0	75
761800	0	75
762000	0	75
762200	0	75
762400	0	75
762600	0	75
762800	0	75
763000	0	75
763200	0	75
763400	0	75
763600	0	75
763800	0	75
764000	0	75
764200	0	75
764400	0	75
764600	0	75
764800	0	75
765000	0	75
765200	0	75
765400	0	75
765600	0	75
765800	0	75
766000	0	75
766200	0	75
766400	0	75
766600	0	75
766800	0	75
767000	0	75
767200	0	75
767400	0	75
767600	0	75
767800	0	75
768000	0	75
768200	0	75
768400	0	75
768600	0	75
768800	0	75
769000	0	75
769200	0	75
769400	0	75
769600	0	75
769800	0	75
770000	0	75
770200	0	75
770400	0	75
770600	0	75
770800	0	75
771000	0	75
771200	0	75
771400	0	75
771600	0	75
771800	0	75
772000	0	75
772200	0	75
772400	0	75
772600	0	75
772800	0	75
773000	0	75
773200	0	75
773400	0	75
773600	0	75
773800	0	75
774000	0	75
774200	0	75
774400	0	75
774600	0	75
774800	0	75
775000	0	75
775200	0	75
775400	0	75
775600	0	75
775800	0	75
776000	0	75
776200	0	75
776400	0	75
776600	0	75
776800	0	75
777000	0	75
777200	0	75
777400	0	75
777600	0	75
777800	0	75
778000	0	75
778200	0	75
778400	0	75
778600	0	75
778800	0	75
779000	0	75
779200	0	75
779400	0	75
779600	0	75
779800	0	75
780000	0	75
780200	0	75
780400	0	75
780600	0	75
780800	0	75
781000	0	75
781200	0	75
781400	0	75
781600	0	75
781800	0	75
782000	0	75
782200	0	75
782400	0	75
782600	0	75
782800	0	75
783000	0	75
783200	0	75
783400	0	75
783600	0	75
783800	0	75
784000	0	75
784200	0	75
784400	0	75
784600	0	75
784800	0	75
785000	0	75
785200	0	75
785400	0	75
785600	0	75
785800	0	75
786000	0	75
786200	0	75
786400	0	75
786600	0	75
786800	0	75
787000	0	75
787200	0	75
787400	0	75
787600	0	75
787800	0	75
788000	0	75
788200	0	75
788400	0	75
788600	0	75
788800	0	75
789000	0	75
789200	0	75
789400	0	75
789600	0	75
789800	0	75
790000	0	75
790200	0	75
790400	0	75
790600	0	75
790800	0	75
791000	0	75
791200	0	75
791400	0	75
791600	0	75
791800	0	75
792000	0	75
792200	0	75
792400	0	75
792600	0	75
792800	0	75
793000	0	75
793200	0	75
793400	0	75
793600	0	75
793800	0	75
794000	0	75
794200	0	75
794400	0	75
794600	0	75
794800	0	75
795000	0	75
795200	0	75
795400	0	75
795600	0	75
795800	0	75
796000	0	75
796200	0	75
796400	0	75
796600	0	75
796800	0	75
797000	0	75
797200	0	75
797400	0	75
797600	0	75
797800	0	75
798000	0	75
798200	0	75
798400	0	75
798600	0	75
798800	0	75
799000	0	75
799200	0	75
799400	0	75
799600	0	75
799800	0	75
800000	0	75
800200	0	75
800400	0	75
800600	0	75
800800	0	75
801000	0	75
801200	0	75
801400	0	75
801600	0	75
801800	0	75
802000	0	75
802200	0	75
802400	0	75
802600	0	75
802800	0	75
803000	0	75
803200	0	75
803400	0	75
803600	0	75
803800	0	75
804000	0	75
804200	0	75
804400	0	75
804600	0	75
804800	0	75
805000	0	75
805200	0	75
805400	0	75
805600	0	75
805800	0	75
806000	0	75
806200	0	75
806400	0	75
806600	0	75
806800	0	75
807000	0	75
807200	0	75
807400	0	75
807600	0	75
807800	0	75
808000	0	75
808200	0	75
808400	0	75
808600	0	75
808800	0	75
809000	0	75
809200	0	75
809400	0	75
809600	0	75
809800	0	75
810000	0	75
810200	0	75
810400	0	75
810600	0	75
810800	0	75
811000	0	75
811200	0	75
811400	0	75
811600	0	75
811800	0	75
812000	0	75
812200	0	75
812400	0	75
812600	0	75
812800	0	75
813000	0	75
813200	0	75
813400	0	75
813600	0	75
813800	0	75
814000	0	75
814200	0	75
814400	0	75
814600	0	75
814800	0	75
815000	0	75
815200	0	75
815400	0	75
815600	0	75
815800	0	75
816000	0	75
816200	0	75
816400	0	75
816600	0	75
816800	0	75
817000	0	75
817200	0	75
817400	0	75
817600	0	75
817800	0	75
818000	0	75
818200	0	75
818400	0	75
818600	0	75
818800	0	75
819000	0	75
819200	0	75
819400	0	75
819600	0	75
819800	0	75
820000	0	75
820200	0	75
820400	0	75
820600	0	75
820800	0	75
821000	0	75
821200	0	75
821400	0	75
821600	0	75
821800	0	75
822000	0	75
822200	0	75
822400	0	75
822600	0	75
822800	0	75
823000	0	75
823200	0	75
823400	0	75
823600	0	75
823800	0	75
824000	0	75
824200	0	75
824400	0	75
824600	0	75
824800	0	75
825000	0	75
825200	0	75
825400	0	75
825600	0	75
825800	0	75
826000	0	75
826200	0	75
826400	0	75
826600	0	75
826800	0	75
827000	0	75
827200	0	75
827400	0	75
827600	0	75
827800	0	75
828000	0	75
828200	0	75
828400	0	75
828600	0	75
828800	0	75
829000	0	75
829200	0	75
829400	0	75
829600	0	75
829800	0	75
830000	0	75
830200	0	75
830400	0	75
830600	0	75
830800	0	75
831000	0	75
831200	0	75
831400	0	75
831600	0	75
831800	0	75
832000	0	75
832200	0	75
832400	0	75
832600	0	75
832800	0	75
833000	0	75
833200	0	75
833400	0	75
833600	0	75
833800	0	75
834000	0	75
834200	0	75
834400	0	75
834600	0	75
834800	0	75
835000	0	75
835200	0	75
835400	0	75
835600	0	75
835800	0	75
836000	0	75
836200	0	75
836400	0	75
836600	0	75
836800	0	75
837000	0	75
837200	0	75
837400	0	75
837600	0	75
837800	0	75
838000	0	75
838200	0	75
838400	0	75
838600	0	75
838800	0	75
839000	0	75
839200	0	75
839400	0	75
839600	0	75
839800	0	75
840000	0	75
840200	0	75
840400	0	75
840600	0	75
840800	0	75
841000	0	75
841200	0	75
841400	0	75
841600	0	75
841800	0	75
842000	0	75
842200	0	75
842400	0	75
842600	0	75
842800	0	75
843000	0	75
843200	0	75
843400	0	75
843600	0	75
843800	0	75
844000	0	75
844200	0	75
844400	0	75
844600	0	75
844800	0	75
845000	0	75
845200	0	75
845400	0	75
845600	0	75
845800	0	75
846000	0	75
846200	0	75
846400	0	75
846600	0	75
846800	0	75
847000	0	75
847200	0	75
847400	0	75
847600	0	75
847800	0	75
848000	0	75
848200	0	75
848400	0	75
848600	0	75
848800	0	75
849000	0	75
849200	0	75
849400	0	75
849600	0	75
849800	0	75
850000	0	75
850200	0	75
850400	0	75
850600	0	75
850800	0	75
851000	0	75
851200	0	75
851400	0	75
851600	0	75
851800	0	75
852000	0	75
852200	0	75
852400	0	75
852600	0	75
852800	0	75
853000	0	75
853200	0	75
853400	0	75
853600	0	75
853800	0	75
854000	0	75
854200	0	75
854400	0	75
854600	0	75
854800	0	75
855000	0	75
855200	0	75
855400	0	75
855600	0	75
855800	0	75
856000	0	75
856200	0	75
856400	0	75
856600	0	75
856800	0	75
857000	0	75
857200	0	75
857400	0	75
857600	0	75
857800	0	75
858000	0	75
858200	0	75
858400	0	75
858600	0	75
858800	0	75
859000	0	75
859200	0	75
859400	0	75
859600	0	75
859800	0	75
860000	0	75
860200	0	75
860400	0	75
860600	0	75
860800	0	75
861000	0	75
861200	0	75
861400	0	75
861600	0	75
861800	0	75
862000	0	75
862200	0	75
862400	0	75
862600	0	75
862800	0	75
863000	0	75
863200	0	75
863400	0	75
863600	0	75
863800	0	75
864000	0	75
864200	0	75
864400	0	75
864600	0	75
864800	0	75
865000	0	75
865200	0	75
865400	0	75
865600	0	75
865800	0	75
866000	0	75
866200	0	75
866400	0	75
866600	0	75
866800	0	75
867000	0	75
867200	0	75
867400	0	75
867600	0	75
867800	0	75
868000	0	75
868200	0	75
868400	0	75
868600	0	75
868800	0	75
869000	0	75
869200	0	75
869400	0	75
869600	0	75
869800	0	75
870000	0	75
870200	0	75
870400	0	75
870600	0	75
870800	0	75
871000	0	75
871200	0	75
871400	0	75
871600	0	75
871800	0	75
872000	0	75
872200	0	75
872400	0	75
872600	0	75
872800	0	75
873000	0	75
873200	0	75
873400	0	75
873600	0	75
873800	0	75
874000	0	75
874200	0	75
874400	0	75
874600	0	75
874800	0	75
875000	0	75
875200	0	75
875400	0	75
875600	0	75
875800	0	75
876000	0	75
876200	0	75
876400	0	75
876600	0	75
876800	0	75
877000	0	75
877200	0	75
877400	0	75
877600	0	75
877800	0	75
878000	0	75
878200	0	75
878400	0	75
878600	0	75
878800	0	75
879000	0	75
879200	0	75
879400	0	75
879600	0	75
879800	0	75
880000	0	75
880200	0	75
880400	0	75
880600	0	75
880800	0	75
881000	0	75
881200	0	75
881400	0	75
881600	0	75
881800	0	75
882000	0	75
882200	0	75
882400	0	75
882600	0	75
882800	0	75
883000	0	75
883200	0	75
883400	0	75
883600	0	75
883800	0	75
884000	0	75
884200	0	75
884400	0	75
884600	0	75
884800	0	75
885000	0	75
885200	0	75
885400	0	75
885600	0	75
885800	0	75
886000	0	75
886200	0	75
886400	0	75
886600	0	75
886800	0	75
887000	0	75
887200	0	75
887400	0	75
887600	0	75
887800	0	75
888000	0	75
888200	0	75
888400	0	75
888600	0	75
888800	0	75
889000	0	75
889200	0	75
889400	0	75
889600	0	75
889800	0	75
890000	0	75
890200	0	75
890400	0	75
890600	0	75
890800	0	75
891000	0	75
891200	0	75
891400	0	75
891600	0	75
891800	0	75
892000	0	75
892200	0	75
892400	0	75
892600	0	75
892800	0	75
893000	0	75
893200	0	75
893400	0	75
893600	0	75
893800	0	75
894000	0	75
894200	0	75
894400	0	75
894600	0	75
894800	0	75
895000	0	75
895200	0	75
895400	0	75
895600	0	75
895800	0	75
896000	0	75
896200	0	75
896400	0	75
896600	0	75
896800	0	75
897000	0	75
897200	0	75
897400	0	75
897600	0	75
897800	0	75
898000	0	75
898200	0	75
898400	0	75
898600	0	75
898800	0	75
899000	0	75
899200	0	75
899400	0	75
899600	0	75
899800	0	75
900000	0	75
900200	0	75
900400	0	75
900600	0	75
900800	0	75
901000	0	75
901200	0	75
901400	0	75
901600	0	75
901800	0	75
902000	0	75
902200	0	75
902400	0	75
902600	0	75
902800	0	75
903000	0	75
903200	0	75
903400	0	75
903600	0	75
903800	0	75
904000	0	75
904200	0	75
904400	0	75
904600	0	75
904800	0	75
905000	0	75
905200	0	75
905400	0	75
905600	0	75
905800	0	75
906000	0	75
906200	0	75
906400	0	75
906600	0	75
906800	0	75
907000	0	75
907200	0	75
907400	0	75
907600	0	75
907800	0	75
908000	0	75
908200	0	75
908400	0	75
908600	0	75
908800	0	75
909000	0	75
909200	0	75
909400	0	75
909600	0	75
909800	0	75
910000	0	75
910200	0	75
910400	0	75
910600	0	75
910800	0	75
911000	0	75
911200	0	75
911400	0	75
911600	0	75
911800	0	75
912000	0	75
912200	0	75
912400	0	75
912600	0	75
912800	0	75
913000	0	75
913200	0	75
913400	0	75
913600	0	75
913800	0	75
914000	0	75
914200	0	75
914400	0	75
914600	0	75
914800	0	75
915000	0	75
915200	0	75
915400	0	75
915600	0	75
915800	0	75
916000	0	75
916200	0	75
916400	0	75
916600	0	75
916800	0	75
917000	0	75
917200	0	75
917400	0	75
917600	0	75
917800	0	75
918000	0	75
918200	0	75
918400	0	75
918600	0	75
918800	0	75
919000	0	75
919200	0	75
919400	0	75
919600	0	75
919800	0	75
920000	0	75
920200	0	75
920400	0	75
920600	0	75
920800	0	75
921000	0	75
921200	0	75
921400	0	75
921600	0	75
921800	0	75
922000	0	75
922200	0	75
922400	0	75
922600	0	75
922800	0	75
923000	0	75
923200	0	75
923400	0	75
923600	0	75
923800	0	75
924000	0	75
924200	0	75
924400	0	75
924600	0	75
924800	0	75
925000	0	75
925200	0	75
925400	0	75
925600	0	75
925800	0	75
926000	0	75
926200	0	75
926400	0	75
926600	0	75
926800	0	75
927000	0	75
927200	0	75
927400	0	75
927600	0	75
927800	0	75
928000	0	75
928200	0	75
928400	0	75
928600	0	75
928800	0	75
929000	0	75
929200	0	75
929400	0	75
929600	0	75
929800	0	75
930000	0	75
930200	0	75
930400	0	75
930600	0	75
930800	0	75
931000	0	75
931200	0	75
931400	0	75
931600	0	75
931800	0	75
932000	0	75
932200	0	75
932400	0	75
932600	0	75
932800	0	75
933000	0	75
933200	0	75
933400	0	75
933600	0	75
933800	0	75
934000	0	75
934200	0	75
934400	0	75
934600	0	75
934800	0	75
935000	0	75
935200	0	75
935400	0	75
935600	0	75
935800	0	75
936000	0	75
936200	0	75
936400	0	75
936600	0	75
936800	0	75
937000	0	75
937200	0	75
937400	0	75
937600	0	75
937800	0	75
938000	0	75
938200	0	75
938400	0	75
938600	0	75
938800	0	75
939000	0	75
939200	0	75
939400	0	75
939600	0	75
939800	0	75
940000	0	75
940200	0	75
940400	0	75
940600	0	75
940800	0	75
941000	0	75
941200	0	75
941400	0	75
941600	0	75
941800	0	75
942000	0	75
942200	0	75
942400	0	75
942600	0	75
942800	0	75
943000	0	75
943200	0	75
943400	0	75
943600	0	75
943800	0	75
944000	0	75
944200	0	75
944400	0	75
944600	0	75
944800	0	75
945000	0	75
945200	0	75
945400	0	75
945600	0	75
945800	0	75
946000	0	75
946200	0	75
946400	0	75
946600	0	75
946800	0	75
947000	0	75
947200	0	75
947400	0	75
947600	0	75
947800	0	75
948000	0	75
948200	0	75
948400	0	75
948600	0	75
948800	0	75
949000	0	75
949200	0	75
949400	0	75
949600	0	75
949800	0	75
950000	0	75
950200	0	75
950400	0	75
950600	0	75
950800	0	75
951000	0	75
951200	0	75
951400	0	75
951600	0	75
951800	0	75
952000	0	75
952200	0	75
952400	0	75
952600	0	75
952800	0	75
953000	0	75
953200	0	75
953400	0	75
953600	0	75
953800	0	75
954000	0	75
954200	0	75
954400	0	75
954600	0	75
954800	0	75
955000	0	75
955200	0	75
955400	0	75
955600	0	75
955800	0	75
956000	0	75
956200	0	75
956400	0	75
956600	0	75
956800	0	75
957000	0	75
957200	0	75
957400	0	75
957600	0	75
957800	0	75
958000	0	75
958200	0	75
958400	0	75
958600	0	75
958800	0	75
959000	0	75
959200	0	75
959400	0	75
959600	0	75
959800	0	75
960000	0	75
960200	0	75
960400	0	75
960600	0	75
960800	0	75
961000	0	75
961200	0	75
961400	0	75
961600	0	75
961800	0	75
962000	0	75
962200	0	75
962400	0	75
962600	0	75
962800	0	75
963000	0	75
963200	0	75
963400	0	75
963600	0	75
963800	0	75
964000	0	75
964200	0	75
964400	0	75
964600	0	75
964800	0	75
965000	0	75
965200	0	75
965400	0	75
965600	0	75
965800	0	75
966000	0	75
966200	0	75
966400	0	75
966600	0	75
966800	0	75
967000	0	75
967200	0	75
967400	0	75
967600	0	75
967800	0	75
968000	0	75
968200	0	75
968400	0	75
968600	0	75
968800	0	75
969000	0	75
969200	0	75
969400	0	75
969600	0	75
969800	0	75
970000	0	75
970200	0	75
970400	0	75
970600	0	75
970800	0	75
971000	0	75
971200	0	75
971400	0	75
971600	0	75
971800	0	75
972000	0	75
972200	0	75
972400	0	75
972600	0	75
972800	0	75
973000	0	75
973200	0	75
973400	0	75
973600	0	75
973800	0	75
974000	0	75
974200	0	75
974400	0	75
974600	0	75
974800	0	75
975000	0	75
975200	0	75
975400	0	75
975600	0	75
975800	0	75
976000	0	75
976200	0	75
976400	0	75
976600	0	75
976800	0	75
977000	0	75
977200	0	75
977400	0	75
977600	0	75
977800	0	75
978000	0	75
978200	0	75
978400	0	75
978600	0	75
978800	0	75
979000	0	75
979200	0	75
979400	0	75
979600	0	75
979800	0	75
980000	0	75
980200	0	75
980400	0	75
980600	0	75
980800	0	75
981000	0	75
981200	0	75
981400	0	75
981600	0	75
981800	0	75
982000	0	75
982200	0	75
982400	0	75
982600	0	75
982800	0	75
983000	0	75
983200	0	75
983400	0	75
983600	0	75
983800	0	75
984000	0	75
984200	0	75
984400	0	75
984600	0	75
984800	0	75
985000	0	75
985200	0	75
985400	0	75
985600	0	75
985800	0	75
986000	0	75
986200	0	75
986400	0	75
986600	0	75
986800	0	75
987000	0	75
987200	0	75
987400	0	75
987600	0	75
987800	0	75
988000	0	75
988200	0	75
988400	0	75
988600	0	75
988800	0	75
989000	0	75
989200	0	75
989400	0	75
989600	0	75
989800	0	75
990000	0	75
990200	0	75
990400	0	75
990600	0	75
990800	0	75
991000	0	75
991200	0	75
991400	0	75
991600	0	75
991800	0	75
992000	0	75
992200	0	75
992400	0	75
992600	0	75
992800	0	75
993000	0	75
993200	0	75
993400	0	75
993600	0	75
993800	0	75
994000	0	75
994200	0	75
994400	0	75
994600	0	75
994800	0	75
995000	0	75
995200	0	75
995400	0	75
995600	0	75
995800	0	75
996000	0	75
996200	0	75
996400	0	75
996600	0	75
996800	0	75
997000	0	75
997200	0	75
997400	0	75
997600	0	75
997800	0	75
998000	0	75
998200	0	75
998400	0	75
998600	0	75
998800	0	75
999000	0	75
999200	0	75
999400	0	75
999600	0	75
999800	0	75
1000000	0	75
1000200	0	75
1000400	0	75
1000600	0	75
1000800	0	75
1001000	0	75
1001200	0	75
1001400	0	75
1001600	0	75
1001800	0	75
1002000	0	75
1002200	0	75
1002400	0	75
1002600	0	75
1002800	0	75
1003000	0	75
1003200	0	75
1003400	0	75
1003600	0	75
1003800	0	75
1004000	0	75
1004200	0	75
1004400	0	75
1004600	0	75
1004800	0	75
1005000	0	75
1005200	0	75
1005400	0	75
1005600	0	75
1005800	0	75
1006000	0	75
1006200	0	75
1006400	0	75
1006600	0	75
1006800	0	75
1007000	0	75
1007200	0	75
1007400	0	75
1007600	0	75
1007800	0	75
1008000	0	75
1008200	0	75
1008400	0	75
1008600	0	75
1008800	0	75
1009000	0	75
1009200	0	75
1009400	0	75
1009600	0	75
1009800	0	75
1010000	0	75
1010200	0	75
1010400	0	75
1010600	0	75
1010800	0	75
1011000	0	75
1011200	0	75
1011400	0	75
1011600	0	75
1011800	0	75
1012000	0	75
1012200	0	75
1012400	0	75
1012600	0	75
1012800	0	75
1013000	0	75
1013200	0	75
1013400	0	75
1013600	0	75
1013800	0	75
1014000	0	75
1014200	0	75
1014400	0	75
1014600	0	75
1014800	0	75
1015000	0	75
1015200	0	75
1015400	0	75
1015600	0	75
1015800	0	75
1016000	0	75
1016200	0	75
1016400	0	75
1016600	0	75
1016800	0	75
1017000	0	75
1017200	0	75
1017400	0	75
1017600	0	75
1017800	0	75
1018000	0	75
1018200	0	75
1018400	0	75
1018600	0	75
1018800	0	75
1019000	0	75
1019200	0	75
1019400	0	75
1019600	0	75
1019800	0	75
1020000	0	75
1020200	0	75
1020400	0	75
1020600	0	75
1020800	0	75
1021000	0	75
1021200	0	75
1021400	0	75
1021600	0	75
1021800	0	75
1022000	0	75
1022200	0	75
1022400	0	75
1022600	0	75
1022800	0	75
1023000	0	75
1023200	0	75
1023400	0	75
1023600	0	75
1023800	0	75
1024000	0	75
1024200	0	85
1024400	0	85
1024600	0	85
1024800	0	85
1025000	0	85
1025200	0	85
1025400	0	85
1025600	0	85
1025800	0	85
1026000	0	85
1026200	0	85
1026400	0	85
1026600	0	85
1026800	0	85
1027000	0	85
1027200	0	85
1027400	0	85
1027600	0	85
1027800	0	85
1028000	0	85
1028200	0	85
1028400	0	85
1028600	0	85
1028800	0	85
1029000	0	85
1029200	0	85
1029400	0	85
1029600	0	85
1029800	0	85
1030000	0	85
1030200	0	85
1030400	0	85
1030600	0	85
1030800	0	85
1031000	0	85
1031200	0	85
1031400	0	85
1031600	0	85
1031800	0	85
1032000	0	85
1032200	0	85
1032400	0	85
1032600	0	85
1032800	0	85
1033000	0	85
1033200	0	85
1033400	0	85
1033600	0	85
1033800	0	85
1034000	0	85
1034200	0	85
1034400	0	85
1034600	0	85
1034800	0	85
1035000	0	85
1035200	0	85
1035400	0	85
1035600	0	85
1035800	0	85
1036000	0	85
1036200	0	85
1036400	0	85
1036600	0	85
1036800	0	85
1037000	0	85
1037200	0	85
1037400	0	85
1037600	0	85
1037800	0	85
1038000	0	85
1038200	0	85
1038400	0	85
1038600	0	85
1038800	0	85
1039000	0	85
1039200	0	85
1039400	0	85
1039600	0	85
1039800	0	85
1040000	0	85
1040200	0	85
1040400	0	85
1040600	0	85
1040800	0	85
1041000	0	85
1041200	0	85
1041400	0	85
1041600	0	85
1041800	0	85
1042000	0	85
1042200	0	85
1042400	0	85
1042600	0	85
1042800	0	85
1043000	0	85
1043200	0	85
1043400	0	85
1043600	0	85
1043800	0	85
1044000	0	85
1044200	0	85
1044400	0	85
1044600	0	85
1044800	0	85
1045000	0	85
1045200	0	85
1045400	0	85
1045600	0	85
1045800	0	85
1046000	0	85
1046200	0	85
1046400	0	85
1046600	0	85
1046800	0	85
1047000	0	85
1047200	0	85
1047400	0	85
1047600	0	85
1047800	0	85
1048000	0	85
1048200	0	85
1048400	0	85
1048600	0	85
1048800	0	85
1049000	0	85
1049200	0	85
1049400	0	85
1049600	0	85
1049800	0	85
1050000	0	85
1050200	0	85
1050400	0	85
1050600	0	85
1050800	0	85
1051000	0	85
1051200	0	85
1051400	0	85
1051600	0	85
1051800	0	85
1052000	0	85
1052200	0	85
1052400	0	85
1052600	0	85
1052800	0	85
1053000	0	85
1053200	0	85
1053400	0	85
1053600	0	85
1053800	0	85
1054000	0	85
1054200	0	85
1054400	0	85
1054600	0	85
1054800	0	85
1055000	0	85
1055200	0	85
1055400	0	85
1055600	0	85
1055800	0	85
1056000	0	85
1056200	0	85
1056400	0	85
1056600	0	85
1056800	0	85
1057000	0	85
1057200	0	85
1057400	0	85
1057600	0	85
1057800	0	85
1058000	0	85
1058200	0	85
1058400	0	85
1058600	0	85
1058800	0	85
1059000	0	85
1059200	0	85
1059400	0	85
1059600	0	85
1059800	0	85
1060000	0	85
1060200	0	85
1060400	0	85
1060600	0	85
1060800	0	85
1061000	0	85
1061200	0	85
1061400	0	85
1061600	0	85
1061800	0	85
1062000	0	85
1062200	0	85
1062400	0	85
1062600	0	85
1062800	0	85
1063000	0	85
1063200	0	85
1063400	0	85
1063600	0	85
1063800	0	85
1064000	0	85
1064200	0	85
1064400	0	85
1064600	0	85
1064800	0	85
1065000	0	85
1065200	0	85
1065400	0	85
1065600	0	85
1065800	0	85
1066000	0	85
1066200	0	85
1066400	0	85
1066600	0	85
1066800	0	85
1067000	0	85
1067200	0	85
1067400	0	85
1067600	0	85
1067800	0	85
1068000	0	85
1068200	0	85
1068400	0	85
1068600	0	85
1068800	0	85
1069000	0	85
1069200	0	85
1069400	0	85
1069600	0	85
1069800	0	85
1070000	0	85
1070200	0	85
1070400	0	85
1070600	0	85
1070800	0	85
1071000	0	85
1071200	0	85
1071400	0	85
1071600	0	85
1071800	0	85
1072000	0	85
1072200	0	85
1072400	0	85
1072600	0	85
1072800	0	85
1073000	0	85
1073200	0	85
1073400	0	85
1073600	0	85
1073800	0	85
1074000	0	85
1074200	0	85
1074400	0	85
1074600	0	85
1074800	0	85
1075000	0	85
1075200	0	85
1075400	0	85
1075600	0	85
1075800	0	85
1076000	0	85
1076200	0	85
1076400	0	85
1076600	0	85
1076800	0	85
1077000	0	85
1077200	0	85
1077400	0	85
1077600	0	85
1077800	0	85
1078000	0	85
1078200	0	85
1078400	0	85
1078600	0	85
1078800	0	85
1079000	0	85
1079200	0	85
1079400	0	85
1079600	0	85
1079800	0	85
1080000	0	85
1080200	0	85
1080400	0	85
1080600	0	85
1080800	0	85
1081000	0	85
1081200	0	85
1081400	0	85
1081600	0	85
1081800	0	85
1082000	0	85
1082200	0	85
1082400	0	85
1082600	0	85
1082800	0	85
1083000	0	85
1083200	0	85
1083400	0	85
1083600	0	85
1083800	0	85
1084000	0	85
1084200	0	85
1084400	0	85
1084600	0	85
1084800	0	85
1085000	0	85
1085200	0	85
1085400	0	85
1085600	0	85
1085800	0	85
1086000	0	85
1086200	0	85
1086400	0	85
1086600	0	85
1086800	0	85
1087000	0	85
1087200	0	85
1087400	0	85
1087600	0	85
1087800	0	85
1088000	0	85
1088200	0	85
1088400	0	85
1088600	0	85
1088800	0	85
1089000	0	85
1089200	0	85
1089400	0	85
1089600	0	85
1089800	0	85
1090000	0	85
1090200	0	85
1090400	0	85
1090600	0	85
1090800	0	85
1091000	0	85
1091200	0	85
1091400	0	85
1091600	0	85
1091800	0	85
1092000	0	85
1092200	0	85
1092400	0	85
1092600	0	85
1092800	0	85
1093000	0	85
1093200	0	85
1093400	0	85
1093600	0	85
1093800	0	85
1094000	0	85
1094200	0	85
1094400	0	85
1094600	0	85
1094800	0	85
1095000	0	85
1095200	0	85
1095400	0	85
1095600	0	85
1095800	0	85
1096000	0	85
1096200	0	85
1096400	0	85
1096600	0	85
1096800	0	85
1097000	0	85
1097200	0	85
1097400	0	85
1097600	0	85
1097800	0	85
1098000	0	85
1098200	0	85
1098400	0	85
1098600	0	85
1098800	0	85
1099000	0	85
1099200	0	85
1099400	0	85
1099600	0	85
1099800	0	85
1100000	0	85
1100200	0	85
1100400	0	85
1100600	0	85
1100800	0	85
1101000	0	85
1101200	0	85
1101400	0	85
1101600	0	85
1101800	0	85
1102000	0	85
1102200	0	85
1102400	0	85
1102600	0	85
1102800	0	85
1103000	0	85
1103200	0	85
1103400	0	85
1103600	0	85
1103800	0	85
1104000	0	85
1104200	0	85
1104400	0	85
1104600	0	85
1104800	0	85
1105000	0	85
1105200	0	85
1105400	0	85
1105600	0	85
1105800	0	85
1106000	0	85
1106200	0	85
1106400	0	85
1106600	0	85
1106800	0	85
1107000	0	85
1107200	0	85
1107400	0	85
1107600	0	85
1107800	0	85
1108000	0	85
1108200	0	85
1108400	0	85
1108600	0	85
1108800	0	85
1109000	0	85
1109200	0	85
1109400	0	85
1109600	0	85
1109800	0	85
1110000	0	85
1110200	0	85
1110400	0	85
1110600	0	85
1110800	0	85
1111000	0	85
1111200	0	85
1111400	0	85
1111600	0	85
1111800	0	85
1112000	0	85
1112200	0	85
1112400	0	85
1112600	0	85
1112800	0	85
1113000	0	85
1113200	0	85
1113400	0	85
1113600	0	85
1113800	0	85
1114000	0	85
1114200	0	85
1114400	0	85
1114600	0	85
1114800	0	85
1115000	0	85
1115200	0	85
1115400	0	85
1115600	0	85
1115800	0	85
1116000	0	85
1116200	0	85
1116400	0	85
1116600	0	85
1116800	0	85
1117000	0	85
1117200	0	85
1117400	0	85
1117600	0	85
1117800	0	85
1118000	0	85
1118200	0	85
1118400	0	85
1118600	0	85
1118800	0	85
1119000	0	85
1119200	0	85
1119400	0	85
1119600	0	85
1119800	0	85
1120000	0	85
1120200	0	85
1120400	0	85
1120600	0	85
1120800	0	85
1121000	0	85
1121200	0	85
1121400	0	85
1121600	0	85
1121800	0	85
1122000	0	85
1122200	0	85
1122400	0	85
1122600	0	85
1122800	0	85
1123000	0	85
1123200	0	85
1123400	0	85
1123600	0	85
1123800	0	85
1124000	0	85
1124200	0	85
1124400	0	85
1124600	0	85
1124800	0	85
1125000	0	85
1125200	0	85
1125400	0	85
1125600	0	85
1125800	0	85
1126000	0	85
1126200	0	85
1126400	0	85
1126600	0	85
1126800	0	85
1127000	0	85
1127200	0	85
1127400	0	85
1127600	0	85
1127800	0	85
1128000	0	85
1128200	0	85
1128400	0	85
1128600	0	85
1128800	0	85
1129000	0	85
1129200	0	85
1129400	0	85
1129600	0	85
1129800	0	85
1130000	0	85
1130200	0	85
1130400	0	85
1130600	0	85
1130800	0	85
1131000	0	85
1131200	0	85
1131400	0	85
1131600	0	85
1131800	0	85
1132000	0	85
1132200	0	85
1132400	0	85
1132600	0	85
1132800	0	85
1133000	0	85
1133200	0	85
1133400	0	85
1133600	0	85
1133800	0	85
1134000	0	85
1134200	0	85
1134400	0	85
1134600	0	85
1134800	0	85
1135000	0	85
1135200	0	85
1135400	0	85
1135600	0	85
1135800	0	85
1136000	0	85
1136200	0	85
1136400	0	85
1136600	0	85
1136800	0	85
1137000	0	85
1137200	0	85
1137400	0	85
1137600	0	85
1137800	0	85
1138000	0	85
1138200	0	85
1138400	0	85
1138600	0	85
1138800	0	85
1139000	0	85
1139200	0	85
1139400	0	85
1139600	0	85
1139800	0	85
1140000	0	85
1140200	0	85
1140400	0	85
1140600	0	85
1140800	0	85
1141000	0	85
1141200	0	85
1141400	0	85
1141600	0	85
1141800	0	85
1142000	0	85
1142200	0	85
1142400	0	85
1142600	0	85
1142800	0	85
1143000	0	85
1143200	0	85
1143400	0	85
1143600	0	85
1143800	0	85
1144000	0	85
1144200	0	85
1144400	0	85
1144600	0	85
1144800	0	85
1145000	0	85
1145200	0	85
1145400	0	85
1145600	0	85
1145800	0	85
1146000	0	85
1146200	0	85
1146400	0	85
1146600	0	85
1146800	0	85
1147000	0	85
1147200	0	85
1147400	0	85
1147600	0	85
1147800	0	85
1148000	0	85
1148200	0	85
1148400	0	85
1148600	0	85
1148800	0	85
1149000	0	85
1149200	0	85
1149400	0	85
1149600	0	85
1149800	0	85
1150000	0	85
1150200	0	85
1150400	0	85
1150600	0	85
1150800	0	85
1151000	0	85
1151200	0	85
1151400	0	85
1151600	0	85
1151800	0	85
1152000	0	85
1152200	0	85
1152400	0	85
1152600	0	85
1152800	0	85
1153000	0	85
1153200	0	85
1153400	0	85
1153600	0	85
1153800	0	85
1154000	0	85
1154200	0	85
1154400	0	85
1154600	0	85
1154800	0	85
1155000	0	85
1155200	0	85
1155400	0	85
1155600	0	85
1155800	0	85
1156000	0	85
1156200	0	85
1156400	0	85
1156600	0	85
1156800	0	85
1157000	0	85
1157200	0	85
1157400	0	85
1157600	0	85
1157800	0	85
1158000	0	85
1158200	0	85
1158400	0	85
1158600	0	85
1158800	0	85
1159000	0	85
1159200	0	85
1159400	0	85
1159600	0	85
1159800	0	85
1160000	0	85
1160200	0	85
1160400	0	85
1160600	0	85
1160800	0	85
1161000	0	85
1161200	0	85
1161400	0	85
1161600	0	85
1161800	0	85
1162000	0	85
1162200	0	85
1162400	0	85
1162600	0	85
1162800	0	85
1163000	0	85
1163200	0	85
1163400	0	85
1163600	0	85
1163800	0	85
1164000	0	85
1164200	0	85
1164400	0	85
1164600	0	85
1164800	0	85
1165000	0	85
1165200	0	85
1165400	0	85
1165600	0	85
1165800	0	85
1166000	0	85
1166200	0	85
1166400	0	85
1166600	0	85
1166800	0	85
1167000	0	85
1167200	0	85
1167400	0	85
1167600	0	85
1167800	0	85
1168000	0	85
1168200	0	85
1168400	0	85
1168600	0	85
1168800	0	85
1169000	0	85
1169200	0	85
1169400	0	85
1169600	0	85
1169800	0	85
1170000	0	85
1170200	0	85
1170400	0	85
1170600	0	85
1170800	0	85
1171000	0	85
1171200	0	85
1171400	0	85
1171600	0	85
1171800	0	85
1172000	0	85
1172200	0	85
1172400	0	85
1172600	0	85
1172800	0	85
1173000	0	85
1173200	0	85
1173400	0	85
1173600	0	85
1173800	0	85
1174000	0	85
1174200	0	85
1174400	0	85
1174600	0	85
1174800	0	85
1175000	0	85
1175200	0	85
1175400	0	85
1175600	0	85
1175800	0	85
1176000	0	85
1176200	0	85
1176400	0	85
1176600	0	85
1176800	0	85
1177000	0	85
1177200	0	85
1177400	0	85
1177600	0	85
1177800	0	85
1178000	0	85
1178200	0	85
1178400	0	85
1178600	0	85
1178800	0	85
1179000	0	85
1179200	0	85
1179400	0	85
1179600	0	85
1179800	0	85
1180000	0	85
1180200	0	85
1180400	0	85
1180600	0	85
1180800	0	85
1181000	0	85
1181200	0	85
1181400	0	85
1181600	0	85
1181800	0	85
1182000	0	85
1182200	0	85
1182400	0	85
1182600	0	85
1182800	0	85
1183000	0	85
1183200	0	85
1183400	0	85
1183600	0	85
1183800	0	85
1184000	0	85
1184200	0	85
1184400	0	85
1184600	0	85
1184800	0	85
1185000	0	85
1185200	0	85
1185400	0	85
1185600	0	85
1185800	0	85
1186000	0	85
1186200	0	85
1186400	0	85
1186600	0	85
1186800	0	85
1187000	0	85
1187200	0	85
1187400	0	85
1187600	0	85
1187800	0	85
1188000	0	85
1188200	0	85
1188400	0	85
1188600	0	85
1188800	0	85
1189000	0	85
1189200	0	85
1189400	0	85
1189600	0	85
1189800	0	85
1190000	0	85
1190200	0	85
1190400	0	85
1190600	0	85
1190800	0	85
1191000	0	85
1191200	0	85
1191400	0	85
1191600	0	85
1191800	0	85
1192000	0	85
1192200	0	85
1192400	0	85
1192600	0	85
1192800	0	85
1193000	0	85
1193200	0	85
1193400	0	85
1193600	0	85
1193800	0	85
1194000	0	85
1194200	0	85
1194400	0	85
1194600	0	85
1194800	0	85
1195000	0	85
1195200	0	85
1195400	0	85
1195600	0	85
1195800	0	85
1196000	0	85
1196200	0	85
1196400	0	85
1196600	0	85
1196800	0	85
1197000	0	85
1197200	0	85
1197400	0	85
1197600	0	85
1197800	0	85
1198000	0	85
1198200	0	85
1198400	0	85
1198600	0	85
1198800	0	85
1199000	0	85
1199200	0	85
1199400	0	85
1199600	0	85
1199800	0	85
1200000	0	85
1200200	0	85
1200400	0	85
1200600	0	85
1200800	0	85
1201000	0	85
1201200	0	85
1201400	0	85
1201600	0	85
1201800	0	85
1202000	0	85
1202200	0	85
1202400	0	85
1202600	0	85
1202800	0	85
1203000	0	85
1203200	0	85
1203400	0	85
1203600	0	85
1203800	0	85
1204000	0	85
1204200	0	85
1204400	0	85
1204600	0	85
1204800	0	85
1205000	0	85
1205200	0	85
1205400	0	85
1205600	0	85
1205800	0	85
1206000	0	85
1206200	0	85
1206400	0	85
1206600	0	85
1206800	0	85
1207000	0	85
1207200	0	85
1207400	0	85
1207600	0	85
1207800	0	85
1208000	0	85
1208200	0	85
1208400	0	85
1208600	0	85
1208800	0	85
1209000	0	85
1209200	0	85
1209400	0	85
1209600	0	85
1209800	0	85
1210000	0	85
1210200	0	85
1210400	0	85
1210600	0	85
1210800	0	85
1211000	0	85
1211200	0	85
1211400	0	85
1211600	0	85
1211800	0	85
1212000	0	85
1212200	0	85
1212400	0	85
1212600	0	85
1212800	0	85
1213000	0	85
1213200	0	85
1213400	0	85
1213600	0	85
1213800	0	85
1214000	0	85
1214200	0	85
1214400	0	85
1214600	0	85
1214800	0	85
1215000	0	85
1215200	0	85
1215400	0	85
1215600	0	85
1215800	0	85
1216000	0	85
1216200	0	85
1216400	0	85
1216600	0	85
1216800	0	85
1217000	0	85
1217200	0	85
1217400	0	85
1217600	0	85
1217800	0	85
1218000	0	85
1218200	0	85
1218400	0	85
1218600	0	85
1218800	0	85
1219000	0	85
1219200	0	85
1219400	0	85
1219600	0	85
1219800	0	85
1220000	0	85
1220200	0	85
1220400	0	85
1220600	0	85
1220800	0	85
1221000	0	85
1221200	0	85
1221400	0	85
1221600	0	85
1221800	0	85
1222000	0	85
1222200	0	85
1222400	0	85
1222600	0	85
1222800	0	85
1223000	0	85
1223200	0	85
1223400	0	85
1223600	0	85
1223800	0	85
1224000	0	85
1224200	0	85
1224400	0	85
1224600	0	85
1224800	0	85
1225000	0	85
1225200	0	85
1225400	0	85
1225600	0	85
1225800	0	85
1226000	0	85
1226200	0	85
1226400	0	85
1226600	0	85
1226800	0	85
1227000	0	85
1227200	0	85
1227400	0	85
1227600	0	85
1227800	0	85
1228000	0	85
1228200	0	85
1228400	0	85
1228600	0	85
1228800	0	85
1229000	0	85
1229200	0	85
1229400	0	85
1229600	0	85
1229800	0	85
1230000	0	85
1230200	0	85
1230400	0	85
1230600	0	85
1230800	0	85
1231000	0	85
1231200	0	85
1231400	0	85
1231600	0	85
1231800	0	85
1232000	0	85
1232200	0	85
1232400	0	85
1232600	0	85
1232800	0	85
1233000	0	85
1233200	0	85
1233400	0	85
1233600	0	85
1233800	0	85
1234000	0	85
1234200	0	85
1234400	0	85
1234600	0	85
1234800	0	85
1235000	0	85
1235200	0	85
1235400	0	85
1235600	0	85
1235800	0	85
1236000	0	85
1236200	0	85
1236400	0	85
1236600	0	85
1236800	0	85
1237000	0	85
1237200	0	85
1237400	0	85
1237600	0	85
1237800	0	85
1238000	0	85
1238200	0	85
1238400	0	85
1238600	0	85
1238800	0	85
1239000	0	85
1239200	0	85
1239400	0	85
1239600	0	85
1239800	0	85
1240000	0	85
1240200	0	85
1240400	0	85
1240600	0	85
1240800	0	85
1241000	0	85
1241200	0	85
1241400	0	85
1241600	0	85
1241800	0	85
1242000	0	85
1242200	0	85
1242400	0	85
1242600	0	85
1242800	0	85
1243000	0	85
1243200	0	85
1243400	0	85
1243600	0	85
1243800	0	85
1244000	0	85
1244200	0	85
1244400	0	85
1244600	0	85
1244800	0	85
1245000	0	85
1245200	0	85
1245400	0	85
1245600	0	85
1245800	0	85
1246000	0	85
1246200	0	85
1246400	0	85
1246600	0	85
1246800	0	85
1247000	0	85
1247200	0	85
1247400	0	85
1247600	0	85
1247800	0	85
1248000	0	85
1248200	0	85
1248400	0	85
1248600	0	85
1248800	0	85
1249000	0	85
1249200	0	85
1249400	0	85
1249600	0	85
1249800	0	85
1250000	0	85
1250200	0	85
1250400	0	85
1250600	0	85
1250800	0	85
1251000	0	85
1251200	0	85
1251400	0	85
1251600	0	85
1251800	0	85
1252000	0	85
1252200	0	85
1252400	0	85
1252600	0	85
1252800	0	85
1253000	0	85
1253200	0	85
1253400	0	85
1253600	0	85
1253800	0	85
1254000	0	85
1254200	0	85
1254400	0	85
1254600	0	85
1254800	0	85
1255000	0	85
1255200	0	85
1255400	0	85
1255600	0	85
1255800	0	85
1256000	0	85
1256200	0	85
1256400	0	85
1256600	0	85
1256800	0	85
1257000	0	85
1257200	0	85
1257400	0	85
1257600	0	85
1257800	0	85
1258000	0	85
1258200	0	85
1258400	0	85
1258600	0	85
1258800	0	85
1259000	0	85
1259200	0	85
1259400	0	85
1259600	0	85
1259800	0	85
1260000	0	85
1260200	0	85
1260400	0	85
1260600	0	85
1260800	0	85
1261000	0	85
1261200	0	85
1261400	0	85
1261600	0	85
1261800	0	85
1262000	0	85
1262200	0	85
1262400	0	85
1262600	0	85
1262800	0	85
1263000	0	85
1263200	0	85
1263400	0	85
1263600	0	85
1263800	0	85
1264000	0	85
1264200	0	85
1264400	0	85
1264600	0	85
1264800	0	85
1265000	0	85
1265200	0	85
1265400	0	85
1265600	0	85
1265800	0	85
1266000	0	85
1266200	0	85
1266400	0	85
1266600	0	85
1266800	0	85
1267000	0	85
1267200	0	85
1267400	0	85
1267600	0	85
1267800	0	85
1268000	0	85
1268200	0	85
1268400	0	85
1268600	0	85
1268800	0	85
1269000	0	85
1269200	0	85
1269400	0	85
1269600	0	85
1269800	0	85
1270000	0	85
1270200	0	85
1270400	0	85
1270600	0	85
1270800	0	85
1271000	0	85
1271200	0	85
1271400	0	85
1271600	0	85
1271800	0	85
1272000	0	85
1272200	0	85
1272400	0	85
1272600	0	85
1272800	0	85
1273000	0	85
1273200	0	85
1273400	0	85
1273600	0	85
1273800	0	85
1274000	0	85
1274200	0	85
1274400	0	85
1274600	0	85
1274800	0	85
1275000	0	85
1275200	0	85
1275400	0	85
1275600	0	85
1275800	0	85
1276000	0	85
1276200	0	85
1276400	0	85
1276600	0	85
1276800	0	85
1277000	0	85
1277200	0	85
1277400	0	85
1277600	0	85
1277800	0	85
1278000	0	85
1278200	0	85
1278400	0	85
1278600	0	85
1278800	0	85
1279000	0	85
1279200	0	85
1279400	0	85
1279600	0	85
1279800	0	85
1280000	0	85
1280200	0	85
1280400	0	85
1280600	0	85
1280800	0	85
1281000	0	85
1281200	0	85
1281400	0	85
1281600	0	85
1281800	0	85
1282000	0	85
1282200	0	85
1282400	0	85
1282600	0	85
1282800	0	85
1283000	0	85
1283200	0	85
1283400	0	85
1283600	0	85
1283800	0	85
1284000	0	85
1284200	0	85
1284400	0	85
1284600	0	85
1284800	0	85
1285000	0	85
1285200	0	85
1285400	0	85
1285600	0	85
1285800	0	85
1286000	0	85
1286200	0	85
1286400	0	85
1286600	0	85
1286800	0	85
1287000	0	85
1287200	0	85
1287400	0	85
1287600	0	85
1287800	0	85
1288000	0	85
1288200	0	85
1288400	0	85
1288600	0	85
1288800	0	85
1289000	0	85
1289200	0	85
1289400	0	85
1289600	0	85
1289800	0	85
1290000	0	85
1290200	0	85
1290400	0	85
1290600	0	85
1290800	0	85
1291000	0	85
1291200	0	85
1291400	0	85
1291600	0	85
1291800	0	85
1292000	0	85
1292200	0	85
1292400	0	85
1292600	0	85
1292800	0	85
1293000	0	85
1293200	0	85
1293400	0	85
1293600	0	85
1293800	0	85
1294000	0	85
1294200	0	85
1294400	0	85
1294600	0	85
1294800	0	85
1295000	0	85
1295200	0	85
1295400	0	85
1295600	0	85
1295800	0	85
1296000	0	85
1296200	0	85
1296400	0	85
1296600	0	85
1296800	0	85
1297000	0	85
1297200	0	85
1297400	0	85
1297600	0	85
1297800	0	85
1298000	0	85
1298200	0	85
1298400	0	85
1298600	0	85
1298800	0	85
1299000	0	85
1299200	0	85
1299400	0	85
1299600	0	85
1299800	0	85
1300000	0	85
1300200	0	85
1300400	0	85
1300600	0	85
1300800	0	85
1301000	0	85
1301200	0	85
1301400	0	85
1301600	0	85
1301800	0	85
1302000	0	85
1302200	0	85
1302400	0	85
1302600	0	85
1302800	0	85
1303000	0	85
1303200	0	85
1303400	0	85
1303600	0	85
1303800	0	85
1304000	0	85
1304200	0	85
1304400	0	85
1304600	0	85
1304800	0	85
1305000	0	85
1305200	0	85
1305400	0	85
1305600	0	85
1305800	0	85
1306000	0	85
1306200	0	85
1306400	0	85
1306600	0	85
1306800	0	85
1307000	0	85
1307200	0	85
1307400	0	85
1307600	0	85
1307800	0	85
1308000	0	85
1308200	0	85
1308400	0	85
1308600	0	85
1308800	0	85
1309000	0	85
1309200	0	85
1309400	0	85
1309600	0	85
1309800	0	85
1310000	0	85
1310200	0	85
1310400	0	85
1310600	0	85
1310800	0	85
1311000	0	85
1311200	0	85
1311400	0	85
1311600	0	85
1311800	0	85
1312000	0	85
1312200	0	85
1312400	0	85
1312600	0	85
1312800	0	85
1313000	0	85
1313200	0	85
1313400	0	85
1313600	0	85
1313800	0	85
1314000	0	85
1314200	0	85
1314400	0	85
1314600	0	85
1314800	0	85
1315000	0	85
1315200	0	85
1315400	0	85
1315600	0	85
1315800	0	85
1316000	0	85
1316200	0	85
1316400	0	85
1316600	0	85
1316800	0	85
1317000	0	85
1317200	0	85
1317400	0	85
1317600	0	85
1317800	0	85
1318000	0	85
1318200	0	85
1318400	0	85
1318600	0	85
1318800	0	85
1319000	0	85
1319200	0	85
1319400	0	85
1319600	0	85
1319800	0	85
1320000	0	85
1320200	0	85
1320400	0	85
1320600	0	85
1320800	0	85
1321000	0	85
1321200	0	85
1321400	0	85
1321600	0	85
1321800	0	85
1322000	0	85
1322200	0	85
1322400	0	85
1322600	0	85
1322800	0	85
1323000	0	85
1323200	0	85
1323400	0	85
1323600	0	85
1323800	0	85
1324000	0	85
1324200	0	85
1324400	0	85
1324600	0	85
1324800	0	85
1325000	0	85
1325200	0	85
1325400	0	85
1325600	0	85
1325800	0	85
1326000	0	85
1326200	0	85
1326400	0	85
1326600	0	85
1326800	0	85
1327000	0	85
1327200	0	85
1327400	0	85
1327600	0	85
1327800	0	85
1328000	0	85
1328200	0	85
1328400	0	85
1328600	0	85
1328800	0	85
1329000	0	85
1329200	0	85
1329400	0	85
1329600	0	85
1329800	0	85
1330000	0	85
1330200	0	85
1330400	0	85
1330600	0	85
1330800	0	85
1331000	0	85
1331200	0	85
1331400	0	85
1331600	0	85
1331800	0	85
1332000	0	85
1332200	0	85
1332400	0	85
1332600	0	85
1332800	0	85
1333000	0	85
1333200	0	85
1333400	0	85
1333600	0	85
1333800	0	85
1334000	0	85
1334200	0	85
1334400	0	85
1334600	0	85
1334800	0	85
1335000	0	85
1335200	0	85
1335400	0	85
1335600	0	85
1335800	0	85
1336000	0	85
1336200	0	85
1336400	0	85
1336600	0	85
1336800	0	85
1337000	0	85
1337200	0	85
1337400	0	85
1337600	0	85
1337800	0	85
1338000	0	85
1338200	0	85
1338400	0	85
1338600	0	85
1338800	0	85
1339000	0	85
1339200	0	85
1339400	0	85
1339600	0	85
1339800	0	85
1340000	0	85
1340200	0	85
1340400	0	85
1340600	0	85
1340800	0	85
1341000	0	85
1341200	0	85
1341400	0	85
1341600	0	85
1341800	0	85
1342000	0	85
1342200	0	85
1342400	0	85
1342600	0	85
1342800	0	85
1343000	0	85
1343200	0	85
1343400	0	85
1343600	0	85
1343800	0	85
1344000	0	85
1344200	0	85
1344400	0	85
1344600	0	85
1344800	0	85
1345000	0	85
1345200	0	85
1345400	0	85
1345600	0	85
1345800	0	85
1346000	0	85
1346200	0	85
1346400	0	85
1346600	0	85
1346800	0	85
1347000	0	85
1347200	0	85
1347400	0	85
1347600	0	85
1347800	0	85
1348000	0	85
1348200	0	85
1348400	0	85
1348600	0	85
1348800	0	85
1349000	0	85
1349200	0	85
1349400	0	85
1349600	0	85
1349800	0	85
1350000	0	85
1350200	0	85
1350400	0	85
1350600	0	85
1350800	0	85
1351000	0	85
1351200	0	85
1351400	0	85
1351600	0	85
1351800	0	85
1352000	0	85
1352200	0	85
1352400	0	85
1352600	0	85
1352800	0	85
1353000	0	85
1353200	0	85
1353400	0	85
1353600	0	85
1353800	0	85
1354000	0	85
1354200	0	85
1354400	0	85
1354600	0	85
1354800	0	85
1355000	0	85
1355200	0	85
1355400	0	85
1355600	0	85
1355800	0	85
1356000	0	85
1356200	0	85
1356400	0	85
1356600	0	85
1356800	0	85
1357000	0	85
1357200	0	85
1357400	0	85
1357600	0	85
1357800	0	85
1358000	0	85
1358200	0	85
1358400	0	85
1358600	0	85
1358800	0	85
1359000	0	85
1359200	0	85
1359400	0	85
1359600	0	85
1359800	0	85
1360000	0	85
1360200	0	85
1360400	0	85
1360600	0	85
1360800	0	85
1361000	0	85
1361200	0	85
1361400	0	85
1361600	0	85
1361800	0	85
1362000	0	85
1362200	0	85
1362400	0	85
1362600	0	85
1362800	0	85
1363000	0	85
1363200	0	85
1363400	0	85
1363600	0	85
1363800	0	85
1364000	0	85
1364200	0	85
1364400	0	85
1364600	0	85
1364800	0	85
1365000	0	85
1365200	0	85
1365400	0	85
1365600	0	85
1365800	0	85
1366000	0	85
1366200	0	85
1366400	0	85
1366600	0	85
1366800	0	85
1367000	0	85
1367200	0	85
1367400	0	85
1367600	0	85
1367800	0	85
1368000	0	85
1368200	0	85
1368400	0	85
1368600	0	85
1368800	0	85
1369000	0	85
1369200	0	85
1369400	0	85
1369600	0	85
1369800	0	85
1370000	0	85
1370200	0	85
1370400	0	85
1370600	0	85
1370800	0	85
1371000	0	85
1371200	0	85
1371400	0	85
1371600	0	85
1371800	0	85
1372000	0	85
1372200	0	85
1372400	0	85
1372600	0	85
1372800	0	85
1373000	0	85
1373200	0	85
1373400	0	85
1373600	0	85
1373800	0	85
1374000	0	85
1374200	0	85
1374400	0	85
1374600	0	85
1374800	0	85
1375000	0	85
1375200	0	85
1375400	0	85
1375600	0	85
1375800	0	85
1376000	0	85
1376200	0	85
1376400	0	85
1376600	0	85
1376800	0	85
1377000	0	85
1377200	0	85
1377400	0	85
1377600	0	85
1377800	0	85
1378000	0	85
1378200	0	85
1378400	0	85
1378600	0	85
1378800	0	85
1379000	0	85
1379200	0	85
1379400	0	85
1379600	0	85
1379800	0	85
1380000	0	85
1380200	0	85
1380400	0	85
1380600	0	85
1380800	0	85
1381000	0	85
1381200	0	85
1381400	0	85
1381600	0	85
1381800	0	85
1382000	0	85
1382200	0	85
1382400	0	85
1382600	0	85
1382800	0	85
1383000	0	85
1383200	0	85
1383400	0	85
1383600	0	85
1383800	0	85
1384000	0	85
1384200	0	85
1384400	0	85
1384600	0	85
1384800	0	85
1385000	0	85
1385200	0	85
1385400	0	85
1385600	0	85
1385800	0	85
1386000	0	85
1386200	0	85
1386400	0	85
1386600	0	85
1386800	0	85
1387000	0	85
1387200	0	85
1387400	0	85
1387600	0	85
1387800	0	85
1388000	0	85
1388200	0	85
1388400	0	85
1388600	0	85
1388800	0	85
1389000	0	85
1389200	0	85
1389400	0	85
1389600	0	85
1389800	0	85
1390000	0	85
1390200	0	85
1390400	0	85
1390600	0	85
1390800	0	85
1391000	0	85
1391200	0	85
1391400	0	85
1391600	0	85
1391800	0	85
1392000	0	85
1392200	0	85
1392400	0	85
1392600	0	85
1392800	0	85
1393000	0	85
1393200	0	85
1393400	0	85
1393600	0	85
1393800	0	85
1394000	0	85
1394200	0	85
1394400	0	85
1394600	0	85
1394800	0	85
1395000	0	85
1395200	0	85
1395400	0	85
1395600	0	85
1395800	0	85
1396000	0	85
1396200	0	85
1396400	0	85
1396600	0	85
1396800	0	85
1397000	0	85
1397200	0	85
1397400	0	85
1397600	0	85
1397800	0	85
1398000	0	85
1398200	0	85
1398400	0	85
1398600	0	85
1398800	0	85
1399000	0	85
1399200	0	85
1399400	0	85
1399600	0	85
1399800	0	85
1400000	0	85
1400200	0	85
1400400	0	85
1400600	0	85
1400800	0	85
1401000	0	85
1401200	0	85
1401400	0	85
1401600	0	85
1401800	0	85
1402000	0	85
1402200	0	85
1402400	0	85
1402600	0	85
1402800	0	85
1403000	0	85
1403200	0	85
1403400	0	85
1403600	0	85
1403800	0	85
1404000	0	85
1404200	0	85
1404400	0	85
1404600	0	85
1404800	0	85
1405000	0	85
1405200	0	85
1405400	0	85
1405600	0	85
1405800	0	85
1406000	0	85
1406200	0	85
1406400	0	85
1406600	0	85
1406800	0	85
1407000	0	85
1407200	0	85
1407400	0	85
1407600	0	85
1407800	0	85
1408000	0	85
1408200	0	85
1408400	0	85
1408600	0	85
1408800	0	85
1409000	0	85
1409200	0	85
1409400	0	85
1409600	0	85
1409800	0	85
1410000	0	85
1410200	0	85
1410400	0	85
1410600	0	85
1410800	0	85
1411000	0	85
1411200	0	85
1411400	0	85
1411600	0	85
1411800	0	85
1412000	0	85
1412200	0	85
1412400	0	85
1412600	0	85
1412800	0	85
1413000	0	85
1413200	0	85
1413400	0	85
1413600	0	85
1413800	0	85
1414000	0	85
1414200	0	85
1414400	0	85
1414600	0	85
1414800	0	85
1415000	0	85
1415200	0	85
1415400	0	85
1415600	0	85
1415800	0	85
1416000	0	85
1416200	0	85
1416400	0	85
1416600	0	85
1416800	0	85
1417000	0	85
1417200	0	85
1417400	0	85
1417600	0	85
1417800	0	85
1418000	0	85
1418200	0	85
1418400	0	85
1418600	0	85
1418800	0	85
1419000	0	85
1419200	0	85
1419400	0	85
1419600	0	85
1419800	0	85
1420000	0	85
1420200	0	85
1420400	0	85
1420600	0	85
1420800	0	85
1421000	0	85
1421200	0	85
1421400	0	85
1421600	0	85
1421800	0	85
1422000	0	85
1422200	0	85
1422400	0	85
1422600	0	85
1422800	0	85
1423000	0	85
1423200	0	85
1423400	0	85
1423600	0	85
1423800	0	85
1424000	0	85
1424200	0	85
1424400	0	85
1424600	0	85
1424800	0	85
1425000	0	85
1425200	0	85
1425400	0	85
1425600	0	85
1425800	0	85
1426000	0	85
1426200	0	85
1426400	0	85
1426600	0	85
1426800	0	85
1427000	0	85
1427200	0	85
1427400	0	85
1427600	0	85
1427800	0	85
1428000	0	85
1428200	0	85
1428400	0	85
1428600	0	85
1428800	0	85
1429000	0	85
1429200	0	85
1429400	0	85
1429600	0	85
1429800	0	85
1430000	0	85
1430200	0	85
1430400	0	85
1430600	0	85
1430800	0	85
1431000	0	85
1431200	0	85
1431400	0	85
1431600	0	85
1431800	0	85
1432000	0	85
1432200	0	85
1432400	0	85
1432600	0	85
1432800	0	85
1433000	0	85
1433200	0	85
1433400	0	85
1433600	0	85
1433800	0	85
1434000	0	85
1434200	0	85
1434400	0	85
1434600	0	85
1434800	0	85
1435000	0	85
1435200	0	85
1435400	0	85
1435600	0	85
1435800	0	85
1436000	0	85
1436200	0	85
1436400	0	85
1436600	0	85
1436800	0	85
1437000	0	85
1437200	0	85
1437400	0	85
1437600	0	85
1437800	0	85
1438000	0	85
1438200	0	85
1438400	0	85
1438600	0	85
1438800	0	85
1439000	0	85
1439200	0	85
1439400	0	85
1439600	0	85
1439800	0	85
1440000	0	85
1440200	0	85
1440400	0	85
1440600	0	85
1440800	0	85
1441000	0	85
1441200	0	85
1441400	0	85
1441600	0	85
1441800	0	85
1442000	0	85
1442200	0	85
1442400	0	85
1442600	0	85
1442800	0	85
1443000	0	85
1443200	0	85
1443400	0	85
1443600	0	85
1443800	0	85
1444000	0	85
1444200	0	85
1444400	0	85
1444600	0	85
1444800	0	85
1445000	0	85
1445200	0	85
1445400	0	85
1445600	0	85
1445800	0	85
1446000	0	85
1446200	0	85
1446400	0	85
1446600	0	85
1446800	0	85
1447000	0	85
1447200	0	85
1447400	0	85
1447600	0	85
1447800	0	85
1448000	0	85
1448200	0	85
1448400	0	85
1448600	0	85
1448800	0	85
1449000	0	85
1449200	0	85
1449400	0	85
1449600	0	85
1449800	0	85
1450000	0	85
1450200	0	85
1450400	0	85
1450600	0	85
1450800	0	85
1451000	0	85
1451200	0	85
1451400	0	85
1451600	0	85
1451800	0	85
1452000	0	85
1452200	0	85
1452400	0	85
1452600	0	85
1452800	0	85
1453000	0	85
1453200	0	85
1453400	0	85
1453600	0	85
1453800	0	85
1454000	0	85
1454200	0	85
1454400	0	85
1454600	0	85
1454800	0	85
1455000	0	85
1455200	0	85
1455400	0	85
1455600	0	85
1455800	0	85
1456000	0	85
1456200	0	85
1456400	0	85
1456600	0	85
1456800	0	85
1457000	0	85
1457200	0	85
1457400	0	85
1457600	0	85
1457800	0	85
1458000	0	85
1458200	0	85
1458400	0	85
1458600	0	85
1458800	0	85
1459000	0	85
1459200	0	85
1459400	0	85
1459600	0	85
1459800	0	85
1460000	0	85
1460200	0	85
1460400	0	85
1460600	0	85
1460800	0	85
1461000	0	85
1461200	0	85
1461400	0	85
1461600	0	85
1461800	0	85
1462000	0	85
1462200	0	85
1462400	0	85
1462600	0	85
1462800	0	85
1463000	0	85
1463200	0	85
1463400	0	85
1463600	0	85
1463800	0	85
1464000	0	85
1464200	0	85
1464400	0	85
1464600	0	85
1464800	0	85
1465000	0	85
1465200	0	85
1465400	0	85
1465600	0	85
1465800	0	85
1466000	0	85
1466200	0	85
1466400	0	85
1466600	0	85
1466800	0	85
1467000	0	85
1467200	0	85
1467400	0	85
1467600	0	85
1467800	0	85
1468000	0	85
1468200	0	85
1468400	0	85
1468600	0	85
1468800	0	85
1469000	0	85
1469200	0	85
1469400	0	85
1469600	0	85
1469800	0	85
1470000	0	85
1470200	0	85
1470400	0	85
1470600	0	85
1470800	0	85
1471000	0	85
1471200	0	85
1471400	0	85
1471600	0	85
1471800	0	85
1472000	0	85
1472200	0	85
1472400	0	85
1472600	0	85
1472800	0	85
1473000	0	85
1473200	0	85
1473400	0	85
1473600	0	85
1473800	0	85
1474000	0	85
1474200	0	85
1474400	0	85
1474600	0	85
1474800	0	85
1475000	0	85
1475200	0	85
1475400	0	85
1475600	0	85
1475800	0	85
1476000	0	85
1476200	0	85
1476400	0	85
1476600	0	85
1476800	0	85
1477000	0	85
1477200	0	85
1477400	0	85
1477600	0	85
1477800	0	85
1478000	0	85
1478200	0	85
1478400	0	85
1478600	0	85
1478800	0	85
1479000	0	85
1479200	0	85
1479400	0	85
1479600	0	85
1479800	0	85
1480000	0	85
1480200	0	85
1480400	0	85
1480600	0	85
1480800	0	85
1481000	0	85
1481200	0	85
1481400	0	85
1481600	0	85
1481800	0	85
1482000	0	85
1482200	0	85
1482400	0	85
1482600	0	85
1482800	0	85
1483000	0	85
1483200	0	85
1483400	0	85
1483600	0	85
1483800	0	85
1484000	0	85
1484200	0	85
1484400	0	85
1484600	0	85
1484800	0	85
1485000	0	85
1485200	0	85
1485400	0	85
1485600	0	85
1485800	0	85
1486000	0	85
1486200	0	85
1486400	0	85
1486600	0	85
1486800	0	85
1487000	0	85
1487200	0	85
1487400	0	85
1487600	0	85
1487800	0	85
1488000	0	85
1488200	0	85
1488400	0	85
1488600	0	85
1488800	0	85
1489000	0	85
1489200	0	85
1489400	0	85
1489600	0	85
1489800	0	85
1490000	0	85
1490200	0	85
1490400	0	85
1490600	0	85
1490800	0	85
1491000	0	85
1491200	0	85
1491400	0	85
1491600	0	85
1491800	0	85
1492000	0	85
1492200	0	85
1492400	0	85
1492600	0	85
1492800	0	85
1493000	0	85
1493200	0	85
1493400	0	85
1493600	0	85
1493800	0	85
1494000	0	85
1494200	0	85
1494400	0	85
1494600	0	85
1494800	0	85
1495000	0	85
1495200	0	85
1495400	0	85
1495600	0	85
1495800	0	85
1496000	0	85
1496200	0	85
1496400	0	85
1496600	0	85
1496800	0	85
1497000	0	85
1497200	0	85
1497400	0	85
1497600	0	85
1497800	0	85
1498000	0	85
1498200	0	85
1498400	0	85
1498600	0	85
1498800	0	85
1499000	0	85
1499200	0	85
1499400	0	85
1499600	0	85
1499800	0	85
1500000	0	85
1500200	0	85
1500400	0	85
1500600	0	85
1500800	0	85
1501000	0	85
1501200	0	85
1501400	0	85
1501600	0	85
1501800	0	85
1502000	0	85
1502200	0	85
1502400	0	85
1502600	0	85
1502800	0	85
1503000	0	85
1503200	0	85
1503400	0	85
1503600	0	85
1503800	0	85
1504000	0	85
1504200	0	85
1504400	0	85
1504600	0	85
1504800	0	85
1505000	0	85
1505200	0	85
1505400	0	85
1505600	0	85
1505800	0	85
1506000	0	85
1506200	0	85
1506400	0	85
1506600	0	85
1506800	0	85
1507000	0	85
1507200	0	85
1507400	0	85
1507600	0	85
1507800	0	85
1508000	0	85
1508200	0	85
1508400	0	85
1508600	0	85
1508800	0	85
1509000	0	85
1509200	0	85
1509400	0	85
1509600	0	85
1509800	0	85
1510000	0	85
1510200	0	85
1510400	0	85
1510600	0	85
1510800	0	85
1511000	0	85
1511200	0	85
1511400	0	85
1511600	0	85
1511800	0	85
1512000	0	85
1512200	0	85
1512400	0	85
1512600	0	85
1512800	0	85
1513000	0	85
1513200	0	85
1513400	0	85
1513600	0	85
1513800	0	85
1514000	0	85
1514200	0	85
1514400	0	85
1514600	0	85
1514800	0	85
1515000	0	85
1515200	0	85
1515400	0	85
1515600	0	85
1515800	0	85
1516000	0	85
1516200	0	85
1516400	0	85
1516600	0	85
1516800	0	85
1517000	0	85
1517200	0	85
1517400	0	85
1517600	0	85
1517800	0	85
1518000	0	85
1518200	0	85
1518400	0	85
1518600	0	85
1518800	0	85
1519000	0	85
1519200	0	85
1519400	0	85
1519600	0	85
1519800	0	85
1520000	0	85
1520200	0	85
1520400	0	85
1520600	0	85
1520800	0	85
1521000	0	85
1521200	0	85
1521400	0	85
1521600	0	85
1521800	0	85
1522000	0	85
1522200	0	85
1522400	0	85
1522600	0	85
1522800	0	85
1523000	0	85
1523200	0	85
1523400	0	85
1523600	0	85
1523800	0	85
1524000	0	85
1524200	0	85
1524400	0	85
1524600	0	85
1524800	0	85
1525000	0	85
1525200	0	85
1525400	0	85
1525600	0	85
1525800	0	85
1526000	0	85
1526200	0	85
1526400	0	85
1526600	0	85
1526800	0	85
1527000	0	85
1527200	0	85
1527400	0	85
1527600	0	85
1527800	0	85
1528000	0	85
1528200	0	85
1528400	0	85
1528600	0	85
1528800	0	85
1529000	0	85
1529200	0	85
1529400	0	85
1529600	0	85
1529800	0	85
1530000	0	85
1530200	0	85
1530400	0	85
1530600	0	85
1530800	0	85
1531000	0	85
1531200	0	85
1531400	0	85
1531600	0	85
1531800	0	85
1532000	0	85
1532200	0	85
1532400	0	85
1532600	0	85
1532800	0	85
1533000	0	85
1533200	0	85
1533400	0	85
1533600	0	85
1533800	0	85
1534000	0	85
1534200	0	85
1534400	0	85
1534600	0	85
1534800	0	85
1535000	0	85
1535200	0	85
1535400	0	85
1535600	0	85
1535800	0	85
1536000	0	85
